# BinNR microsec tot-time (s)  O-Beam AUX Ampl(V) f(Hz) phase(deg) chi(pos)
0 0.00 1200.02 108 377 1.340 10000.000 0.000 -1.011
1 3.00 1200.02 211 736 1.340 10000.000 0.000 -1.011
2 6.00 1200.02 235 760 1.340 10000.000 0.000 -1.011
3 9.00 1200.02 263 832 1.340 10000.000 0.000 -1.011
4 12.00 1200.02 244 897 1.340 10000.000 0.000 -1.011
5 15.00 1200.02 265 868 1.340 10000.000 0.000 -1.011
6 18.00 1200.02 245 930 1.340 10000.000 0.000 -1.011
7 21.00 1200.02 302 915 1.340 10000.000 0.000 -1.011
8 24.00 1200.02 295 1012 1.340 10000.000 0.000 -1.011
9 27.00 1200.02 307 1021 1.340 10000.000 0.000 -1.011
10 30.00 1200.02 287 1069 1.340 10000.000 0.000 -1.011
11 33.00 1200.02 331 992 1.340 10000.000 0.000 -1.011
12 36.00 1200.02 307 1059 1.340 10000.000 0.000 -1.011
13 39.00 1200.02 316 1067 1.340 10000.000 0.000 -1.011
14 42.00 1200.02 340 998 1.340 10000.000 0.000 -1.011
15 45.00 1200.02 319 1029 1.340 10000.000 0.000 -1.011
16 48.00 1200.02 341 1039 1.340 10000.000 0.000 -1.011
17 51.00 1200.02 323 950 1.340 10000.000 0.000 -1.011
18 54.00 1200.02 324 1014 1.340 10000.000 0.000 -1.011
19 57.00 1200.02 288 991 1.340 10000.000 0.000 -1.011
20 60.00 1200.02 276 985 1.340 10000.000 0.000 -1.011
21 63.00 1200.02 314 974 1.340 10000.000 0.000 -1.011
22 66.00 1200.02 308 942 1.340 10000.000 0.000 -1.011
23 69.00 1200.02 268 882 1.340 10000.000 0.000 -1.011
24 72.00 1200.02 269 915 1.340 10000.000 0.000 -1.011
25 75.00 1200.02 241 846 1.340 10000.000 0.000 -1.011
26 78.00 1200.02 236 859 1.340 10000.000 0.000 -1.011
27 81.00 1200.02 255 778 1.340 10000.000 0.000 -1.011
28 84.00 1200.02 209 801 1.340 10000.000 0.000 -1.011
29 87.00 1200.02 219 734 1.340 10000.000 0.000 -1.011
30 90.00 1200.02 263 715 1.340 10000.000 0.000 -1.011
31 93.00 1200.02 222 723 1.340 10000.000 0.000 -1.011
32 96.00 1200.02 232 712 1.340 10000.000 0.000 -1.011
33 99.00 1200.02 210 732 1.340 10000.000 0.000 -1.011
34 102.00 1200.02 235 750 1.340 10000.000 0.000 -1.011
35 105.00 1200.02 232 708 1.340 10000.000 0.000 -1.011
36 108.00 1200.02 241 800 1.340 10000.000 0.000 -1.011
37 111.00 1200.02 281 846 1.340 10000.000 0.000 -1.011
38 114.00 1200.02 252 852 1.340 10000.000 0.000 -1.011
39 117.00 1200.02 302 891 1.340 10000.000 0.000 -1.011
40 120.00 1200.02 275 964 1.340 10000.000 0.000 -1.011
41 123.00 1200.02 299 901 1.340 10000.000 0.000 -1.011
42 126.00 1200.02 292 983 1.340 10000.000 0.000 -1.011
43 129.00 1200.02 290 976 1.340 10000.000 0.000 -1.011
44 132.00 1200.02 326 1068 1.340 10000.000 0.000 -1.011
45 135.00 1200.02 314 1014 1.340 10000.000 0.000 -1.011
46 138.00 1200.02 341 1034 1.340 10000.000 0.000 -1.011
47 141.00 1200.02 337 1038 1.340 10000.000 0.000 -1.011
48 144.00 1200.02 321 1009 1.340 10000.000 0.000 -1.011
49 147.00 1200.02 317 1048 1.340 10000.000 0.000 -1.011
50 150.00 1200.02 317 1083 1.340 10000.000 0.000 -1.011
51 153.00 1200.02 330 986 1.340 10000.000 0.000 -1.011
52 156.00 1200.02 309 1018 1.340 10000.000 0.000 -1.011
53 159.00 1200.02 295 981 1.340 10000.000 0.000 -1.011
54 162.00 1200.02 310 990 1.340 10000.000 0.000 -1.011
55 165.00 1200.02 288 911 1.340 10000.000 0.000 -1.011
56 168.00 1200.02 259 924 1.340 10000.000 0.000 -1.011
57 171.00 1200.02 272 973 1.340 10000.000 0.000 -1.011
58 174.00 1200.02 272 852 1.340 10000.000 0.000 -1.011
59 177.00 1200.02 252 813 1.340 10000.000 0.000 -1.011
60 180.00 1200.02 239 796 1.340 10000.000 0.000 -1.011
61 183.00 1200.02 226 758 1.340 10000.000 0.000 -1.011
62 186.00 1200.02 223 737 1.340 10000.000 0.000 -1.011
63 189.00 1200.02 231 735 1.340 10000.000 0.000 -1.011
64 192.00 1200.02 236 695 1.340 10000.000 0.000 -1.011
65 195.00 1200.02 224 790 1.340 10000.000 0.000 -1.011
66 198.00 1200.02 232 769 1.340 10000.000 0.000 -1.011
67 201.00 1200.02 256 689 1.340 10000.000 0.000 -1.011
68 204.00 1200.02 203 758 1.340 10000.000 0.000 -1.011
69 207.00 1200.02 239 804 1.340 10000.000 0.000 -1.011
70 210.00 1200.02 242 849 1.340 10000.000 0.000 -1.011
71 213.00 1200.02 275 797 1.340 10000.000 0.000 -1.011
72 216.00 1200.02 279 894 1.340 10000.000 0.000 -1.011
73 219.00 1200.02 235 906 1.340 10000.000 0.000 -1.011
74 222.00 1200.02 267 986 1.340 10000.000 0.000 -1.011
75 225.00 1200.02 294 939 1.340 10000.000 0.000 -1.011
76 228.00 1200.02 305 999 1.340 10000.000 0.000 -1.011
77 231.00 1200.02 333 956 1.340 10000.000 0.000 -1.011
78 234.00 1200.02 322 1027 1.340 10000.000 0.000 -1.011
79 237.00 1200.02 294 1029 1.340 10000.000 0.000 -1.011
80 240.00 1200.02 342 1054 1.340 10000.000 0.000 -1.011
81 243.00 1200.02 316 1018 1.340 10000.000 0.000 -1.011
82 246.00 1200.02 318 1157 1.340 10000.000 0.000 -1.011
83 249.00 1200.02 327 1041 1.340 10000.000 0.000 -1.011
84 252.00 1200.02 308 1078 1.340 10000.000 0.000 -1.011
85 255.00 1200.02 301 979 1.340 10000.000 0.000 -1.011
86 258.00 1200.02 321 1026 1.340 10000.000 0.000 -1.011
87 261.00 1200.02 283 930 1.340 10000.000 0.000 -1.011
88 264.00 1200.02 282 1008 1.340 10000.000 0.000 -1.011
89 267.00 1200.02 255 1013 1.340 10000.000 0.000 -1.011
90 270.00 1200.02 274 958 1.340 10000.000 0.000 -1.011
91 273.00 1200.02 251 886 1.340 10000.000 0.000 -1.011
92 276.00 1200.02 243 888 1.340 10000.000 0.000 -1.011
93 279.00 1200.02 243 808 1.340 10000.000 0.000 -1.011
94 282.00 1200.02 241 763 1.340 10000.000 0.000 -1.011
95 285.00 1200.02 212 757 1.340 10000.000 0.000 -1.011
96 288.00 1200.02 247 751 1.340 10000.000 0.000 -1.011
97 291.00 1200.02 221 748 1.340 10000.000 0.000 -1.011
98 294.00 1200.02 210 669 1.340 10000.000 0.000 -1.011
99 297.00 1200.02 225 696 1.340 10000.000 0.000 -1.011
100 300.00 1200.02 204 744 1.340 10000.000 0.000 -1.011
101 303.00 1200.02 265 736 1.340 10000.000 0.000 -1.011
102 306.00 1200.02 229 861 1.340 10000.000 0.000 -1.011
103 309.00 1200.02 242 803 1.340 10000.000 0.000 -1.011
104 312.00 1200.02 295 828 1.340 10000.000 0.000 -1.011
105 315.00 1200.02 266 920 1.340 10000.000 0.000 -1.011
106 318.00 1200.02 288 853 1.340 10000.000 0.000 -1.011
107 321.00 1200.02 304 869 1.340 10000.000 0.000 -1.011
108 324.00 1200.02 268 911 1.340 10000.000 0.000 -1.011
109 327.00 1200.02 317 961 1.340 10000.000 0.000 -1.011
110 330.00 1200.02 306 1045 1.340 10000.000 0.000 -1.011
111 333.00 1200.02 309 958 1.340 10000.000 0.000 -1.011
112 336.00 1200.02 314 1005 1.340 10000.000 0.000 -1.011
113 339.00 1200.02 307 1001 1.340 10000.000 0.000 -1.011
114 342.00 1200.02 320 1090 1.340 10000.000 0.000 -1.011
115 345.00 1200.02 318 1008 1.340 10000.000 0.000 -1.011
116 348.00 1200.02 338 1066 1.340 10000.000 0.000 -1.011
117 351.00 1200.02 295 1046 1.340 10000.000 0.000 -1.011
118 354.00 1200.02 367 1041 1.340 10000.000 0.000 -1.011
119 357.00 1200.02 343 1005 1.340 10000.000 0.000 -1.011
120 360.00 1200.02 296 991 1.340 10000.000 0.000 -1.011
121 363.00 1200.02 324 901 1.340 10000.000 0.000 -1.011
122 366.00 1200.02 284 945 1.340 10000.000 0.000 -1.011
123 369.00 1200.02 280 929 1.340 10000.000 0.000 -1.011
124 372.00 1200.02 293 960 1.340 10000.000 0.000 -1.011
125 375.00 1200.02 284 835 1.340 10000.000 0.000 -1.011
126 378.00 1200.02 267 810 1.340 10000.000 0.000 -1.011
127 381.00 1200.02 246 827 1.340 10000.000 0.000 -1.011
128 384.00 1200.02 258 779 1.340 10000.000 0.000 -1.011
129 387.00 1200.02 216 729 1.340 10000.000 0.000 -1.011
130 390.00 1200.02 235 715 1.340 10000.000 0.000 -1.011
131 393.00 1200.02 209 705 1.340 10000.000 0.000 -1.011
132 396.00 1200.02 226 745 1.340 10000.000 0.000 -1.011
133 399.00 1200.02 216 715 1.340 10000.000 0.000 -1.011
134 402.00 1200.02 241 746 1.340 10000.000 0.000 -1.011
