# BinNR microsec tot-time (s)  O-Beam AUX Ampl(V) f(Hz) phase(deg) chi(pos)
0 0.00 1200.00 168 444 1.340 10000.000 0.000 -0.835
1 3.00 1200.00 290 946 1.340 10000.000 0.000 -0.835
2 6.00 1200.00 349 978 1.340 10000.000 0.000 -0.835
3 9.00 1200.00 324 974 1.340 10000.000 0.000 -0.835
4 12.00 1200.00 339 1032 1.340 10000.000 0.000 -0.835
5 15.00 1200.00 326 1002 1.340 10000.000 0.000 -0.835
6 18.00 1200.00 347 1088 1.340 10000.000 0.000 -0.835
7 21.00 1200.00 367 976 1.340 10000.000 0.000 -0.835
8 24.00 1200.00 393 1109 1.340 10000.000 0.000 -0.835
9 27.00 1200.00 328 1099 1.340 10000.000 0.000 -0.835
10 30.00 1200.00 323 1039 1.340 10000.000 0.000 -0.835
11 33.00 1200.00 373 1056 1.340 10000.000 0.000 -0.835
12 36.00 1200.00 341 1087 1.340 10000.000 0.000 -0.835
13 39.00 1200.00 349 1016 1.340 10000.000 0.000 -0.835
14 42.00 1200.00 373 1030 1.340 10000.000 0.000 -0.835
15 45.00 1200.00 389 1105 1.340 10000.000 0.000 -0.835
16 48.00 1200.00 401 1084 1.340 10000.000 0.000 -0.835
17 51.00 1200.00 371 1079 1.340 10000.000 0.000 -0.835
18 54.00 1200.00 385 1087 1.340 10000.000 0.000 -0.835
19 57.00 1200.00 388 1063 1.340 10000.000 0.000 -0.835
20 60.00 1200.00 324 1038 1.340 10000.000 0.000 -0.835
21 63.00 1200.00 348 1016 1.340 10000.000 0.000 -0.835
22 66.00 1200.00 336 1057 1.340 10000.000 0.000 -0.835
23 69.00 1200.00 314 1029 1.340 10000.000 0.000 -0.835
24 72.00 1200.00 339 1001 1.340 10000.000 0.000 -0.835
25 75.00 1200.00 302 1014 1.340 10000.000 0.000 -0.835
26 78.00 1200.00 293 1001 1.340 10000.000 0.000 -0.835
27 81.00 1200.00 305 950 1.340 10000.000 0.000 -0.835
28 84.00 1200.00 304 930 1.340 10000.000 0.000 -0.835
29 87.00 1200.00 313 927 1.340 10000.000 0.000 -0.835
30 90.00 1200.00 303 911 1.340 10000.000 0.000 -0.835
31 93.00 1200.00 301 875 1.340 10000.000 0.000 -0.835
32 96.00 1200.00 287 876 1.340 10000.000 0.000 -0.835
33 99.00 1200.00 321 825 1.340 10000.000 0.000 -0.835
34 102.00 1200.00 281 895 1.340 10000.000 0.000 -0.835
35 105.00 1200.00 276 934 1.340 10000.000 0.000 -0.835
36 108.00 1200.00 334 978 1.340 10000.000 0.000 -0.835
37 111.00 1200.00 303 994 1.340 10000.000 0.000 -0.835
38 114.00 1200.00 325 1008 1.340 10000.000 0.000 -0.835
39 117.00 1200.00 334 965 1.340 10000.000 0.000 -0.835
40 120.00 1200.00 320 1017 1.340 10000.000 0.000 -0.835
41 123.00 1200.00 346 1053 1.340 10000.000 0.000 -0.835
42 126.00 1200.00 359 1040 1.340 10000.000 0.000 -0.835
43 129.00 1200.00 351 1090 1.340 10000.000 0.000 -0.835
44 132.00 1200.00 374 1059 1.340 10000.000 0.000 -0.835
45 135.00 1200.00 372 1037 1.340 10000.000 0.000 -0.835
46 138.00 1200.00 366 1082 1.340 10000.000 0.000 -0.835
47 141.00 1200.00 347 1014 1.340 10000.000 0.000 -0.835
48 144.00 1200.00 363 1031 1.340 10000.000 0.000 -0.835
49 147.00 1200.00 367 1022 1.340 10000.000 0.000 -0.835
50 150.00 1200.00 369 1067 1.340 10000.000 0.000 -0.835
51 153.00 1200.00 344 1039 1.340 10000.000 0.000 -0.835
52 156.00 1200.00 387 1079 1.340 10000.000 0.000 -0.835
53 159.00 1200.00 318 1077 1.340 10000.000 0.000 -0.835
54 162.00 1200.00 358 1064 1.340 10000.000 0.000 -0.835
55 165.00 1200.00 379 1050 1.340 10000.000 0.000 -0.835
56 168.00 1200.00 343 1091 1.340 10000.000 0.000 -0.835
57 171.00 1200.00 302 1038 1.340 10000.000 0.000 -0.835
58 174.00 1200.00 294 1016 1.340 10000.000 0.000 -0.835
59 177.00 1200.00 323 1026 1.340 10000.000 0.000 -0.835
60 180.00 1200.00 332 1035 1.340 10000.000 0.000 -0.835
61 183.00 1200.00 285 937 1.340 10000.000 0.000 -0.835
62 186.00 1200.00 305 914 1.340 10000.000 0.000 -0.835
63 189.00 1200.00 260 883 1.340 10000.000 0.000 -0.835
64 192.00 1200.00 313 960 1.340 10000.000 0.000 -0.835
65 195.00 1200.00 291 899 1.340 10000.000 0.000 -0.835
66 198.00 1200.00 316 896 1.340 10000.000 0.000 -0.835
67 201.00 1200.00 281 927 1.340 10000.000 0.000 -0.835
68 204.00 1200.00 290 977 1.340 10000.000 0.000 -0.835
69 207.00 1200.00 318 928 1.340 10000.000 0.000 -0.835
70 210.00 1200.00 316 1027 1.340 10000.000 0.000 -0.835
71 213.00 1200.00 339 1002 1.340 10000.000 0.000 -0.835
72 216.00 1200.00 328 1044 1.340 10000.000 0.000 -0.835
73 219.00 1200.00 344 1027 1.340 10000.000 0.000 -0.835
74 222.00 1200.00 371 1028 1.340 10000.000 0.000 -0.835
75 225.00 1200.00 350 1037 1.340 10000.000 0.000 -0.835
76 228.00 1200.00 363 1070 1.340 10000.000 0.000 -0.835
77 231.00 1200.00 369 1067 1.340 10000.000 0.000 -0.835
78 234.00 1200.00 318 1030 1.340 10000.000 0.000 -0.835
79 237.00 1200.00 365 1008 1.340 10000.000 0.000 -0.835
80 240.00 1200.00 335 1041 1.340 10000.000 0.000 -0.835
81 243.00 1200.00 384 1001 1.340 10000.000 0.000 -0.835
82 246.00 1200.00 362 1062 1.340 10000.000 0.000 -0.835
83 249.00 1200.00 344 1081 1.340 10000.000 0.000 -0.835
84 252.00 1200.00 368 1038 1.340 10000.000 0.000 -0.835
85 255.00 1200.00 349 985 1.340 10000.000 0.000 -0.835
86 258.00 1200.00 329 1051 1.340 10000.000 0.000 -0.835
87 261.00 1200.00 361 1017 1.340 10000.000 0.000 -0.835
88 264.00 1200.00 368 1050 1.340 10000.000 0.000 -0.835
89 267.00 1200.00 346 1011 1.340 10000.000 0.000 -0.835
90 270.00 1200.00 347 1054 1.340 10000.000 0.000 -0.835
91 273.00 1200.00 319 988 1.340 10000.000 0.000 -0.835
92 276.00 1200.00 319 995 1.340 10000.000 0.000 -0.835
93 279.00 1200.00 301 938 1.340 10000.000 0.000 -0.835
94 282.00 1200.00 273 989 1.340 10000.000 0.000 -0.835
95 285.00 1200.00 299 884 1.340 10000.000 0.000 -0.835
96 288.00 1200.00 310 964 1.340 10000.000 0.000 -0.835
97 291.00 1200.00 310 915 1.340 10000.000 0.000 -0.835
98 294.00 1200.00 313 892 1.340 10000.000 0.000 -0.835
99 297.00 1200.00 291 924 1.340 10000.000 0.000 -0.835
100 300.00 1200.00 305 908 1.340 10000.000 0.000 -0.835
101 303.00 1200.00 310 890 1.340 10000.000 0.000 -0.835
102 306.00 1200.00 322 937 1.340 10000.000 0.000 -0.835
103 309.00 1200.00 343 945 1.340 10000.000 0.000 -0.835
104 312.00 1200.00 329 1009 1.340 10000.000 0.000 -0.835
105 315.00 1200.00 327 1020 1.340 10000.000 0.000 -0.835
106 318.00 1200.00 359 991 1.340 10000.000 0.000 -0.835
107 321.00 1200.00 332 1049 1.340 10000.000 0.000 -0.835
108 324.00 1200.00 396 1100 1.340 10000.000 0.000 -0.835
109 327.00 1200.00 374 1021 1.340 10000.000 0.000 -0.835
110 330.00 1200.00 377 1095 1.340 10000.000 0.000 -0.835
111 333.00 1200.00 370 1027 1.340 10000.000 0.000 -0.835
112 336.00 1200.00 358 1078 1.340 10000.000 0.000 -0.835
113 339.00 1200.00 370 1060 1.340 10000.000 0.000 -0.835
114 342.00 1200.00 353 1002 1.340 10000.000 0.000 -0.835
115 345.00 1200.00 339 1064 1.340 10000.000 0.000 -0.835
116 348.00 1200.00 350 1081 1.340 10000.000 0.000 -0.835
117 351.00 1200.00 393 1019 1.340 10000.000 0.000 -0.835
118 354.00 1200.00 351 1072 1.340 10000.000 0.000 -0.835
119 357.00 1200.00 335 1039 1.340 10000.000 0.000 -0.835
120 360.00 1200.00 387 1064 1.340 10000.000 0.000 -0.835
121 363.00 1200.00 337 1068 1.340 10000.000 0.000 -0.835
122 366.00 1200.00 354 1021 1.340 10000.000 0.000 -0.835
123 369.00 1200.00 337 1035 1.340 10000.000 0.000 -0.835
124 372.00 1200.00 334 1077 1.340 10000.000 0.000 -0.835
125 375.00 1200.00 361 1007 1.340 10000.000 0.000 -0.835
126 378.00 1200.00 309 968 1.340 10000.000 0.000 -0.835
127 381.00 1200.00 306 992 1.340 10000.000 0.000 -0.835
128 384.00 1200.00 304 1050 1.340 10000.000 0.000 -0.835
129 387.00 1200.00 289 918 1.340 10000.000 0.000 -0.835
130 390.00 1200.00 320 931 1.340 10000.000 0.000 -0.835
131 393.00 1200.00 282 953 1.340 10000.000 0.000 -0.835
132 396.00 1200.00 299 936 1.340 10000.000 0.000 -0.835
133 399.00 1200.00 296 910 1.340 10000.000 0.000 -0.835
134 402.00 1200.00 294 991 1.340 10000.000 0.000 -0.835
