# BinNR microsec tot-time (s)  O-Beam AUX Ampl(V) f(Hz) phase(deg) chi(pos)
0 0.00 1200.02 179 448 1.340 10000.000 0.000 -0.330
1 3.00 1200.02 330 888 1.340 10000.000 0.000 -0.330
2 6.00 1200.02 337 831 1.340 10000.000 0.000 -0.330
3 9.00 1200.02 348 801 1.340 10000.000 0.000 -0.330
4 12.00 1200.02 350 794 1.340 10000.000 0.000 -0.330
5 15.00 1200.02 320 731 1.340 10000.000 0.000 -0.330
6 18.00 1200.02 307 685 1.340 10000.000 0.000 -0.330
7 21.00 1200.02 285 636 1.340 10000.000 0.000 -0.330
8 24.00 1200.02 316 569 1.340 10000.000 0.000 -0.330
9 27.00 1200.02 262 571 1.340 10000.000 0.000 -0.330
10 30.00 1200.02 246 534 1.340 10000.000 0.000 -0.330
11 33.00 1200.02 286 549 1.340 10000.000 0.000 -0.330
12 36.00 1200.02 259 508 1.340 10000.000 0.000 -0.330
13 39.00 1200.02 248 483 1.340 10000.000 0.000 -0.330
14 42.00 1200.02 238 509 1.340 10000.000 0.000 -0.330
15 45.00 1200.02 261 557 1.340 10000.000 0.000 -0.330
16 48.00 1200.02 250 569 1.340 10000.000 0.000 -0.330
17 51.00 1200.02 246 557 1.340 10000.000 0.000 -0.330
18 54.00 1200.02 272 567 1.340 10000.000 0.000 -0.330
19 57.00 1200.02 303 565 1.340 10000.000 0.000 -0.330
20 60.00 1200.02 314 584 1.340 10000.000 0.000 -0.330
21 63.00 1200.02 290 678 1.340 10000.000 0.000 -0.330
22 66.00 1200.02 289 623 1.340 10000.000 0.000 -0.330
23 69.00 1200.02 306 645 1.340 10000.000 0.000 -0.330
24 72.00 1200.02 318 726 1.340 10000.000 0.000 -0.330
25 75.00 1200.02 335 776 1.340 10000.000 0.000 -0.330
26 78.00 1200.02 351 786 1.340 10000.000 0.000 -0.330
27 81.00 1200.02 337 799 1.340 10000.000 0.000 -0.330
28 84.00 1200.02 338 844 1.340 10000.000 0.000 -0.330
29 87.00 1200.02 371 863 1.340 10000.000 0.000 -0.330
30 90.00 1200.02 350 922 1.340 10000.000 0.000 -0.330
31 93.00 1200.02 321 889 1.340 10000.000 0.000 -0.330
32 96.00 1200.02 370 897 1.340 10000.000 0.000 -0.330
33 99.00 1200.02 367 840 1.340 10000.000 0.000 -0.330
34 102.00 1200.02 339 930 1.340 10000.000 0.000 -0.330
35 105.00 1200.02 341 903 1.340 10000.000 0.000 -0.330
36 108.00 1200.02 314 854 1.340 10000.000 0.000 -0.330
37 111.00 1200.02 319 854 1.340 10000.000 0.000 -0.330
38 114.00 1200.02 322 808 1.340 10000.000 0.000 -0.330
39 117.00 1200.02 302 735 1.340 10000.000 0.000 -0.330
40 120.00 1200.02 295 740 1.340 10000.000 0.000 -0.330
41 123.00 1200.02 256 652 1.340 10000.000 0.000 -0.330
42 126.00 1200.02 281 645 1.340 10000.000 0.000 -0.330
43 129.00 1200.02 273 575 1.340 10000.000 0.000 -0.330
44 132.00 1200.02 271 534 1.340 10000.000 0.000 -0.330
45 135.00 1200.02 256 517 1.340 10000.000 0.000 -0.330
46 138.00 1200.02 251 541 1.340 10000.000 0.000 -0.330
47 141.00 1200.02 237 478 1.340 10000.000 0.000 -0.330
48 144.00 1200.02 262 473 1.340 10000.000 0.000 -0.330
49 147.00 1200.02 275 455 1.340 10000.000 0.000 -0.330
50 150.00 1200.02 287 535 1.340 10000.000 0.000 -0.330
51 153.00 1200.02 252 507 1.340 10000.000 0.000 -0.330
52 156.00 1200.02 263 555 1.340 10000.000 0.000 -0.330
53 159.00 1200.02 235 563 1.340 10000.000 0.000 -0.330
54 162.00 1200.02 293 574 1.340 10000.000 0.000 -0.330
55 165.00 1200.02 288 665 1.340 10000.000 0.000 -0.330
56 168.00 1200.02 320 719 1.340 10000.000 0.000 -0.330
57 171.00 1200.02 313 732 1.340 10000.000 0.000 -0.330
58 174.00 1200.02 312 791 1.340 10000.000 0.000 -0.330
59 177.00 1200.02 381 756 1.340 10000.000 0.000 -0.330
60 180.00 1200.02 341 837 1.340 10000.000 0.000 -0.330
61 183.00 1200.02 337 866 1.340 10000.000 0.000 -0.330
62 186.00 1200.02 369 883 1.340 10000.000 0.000 -0.330
63 189.00 1200.02 324 904 1.340 10000.000 0.000 -0.330
64 192.00 1200.02 345 933 1.340 10000.000 0.000 -0.330
65 195.00 1200.02 378 920 1.340 10000.000 0.000 -0.330
66 198.00 1200.02 363 919 1.340 10000.000 0.000 -0.330
67 201.00 1200.02 308 865 1.340 10000.000 0.000 -0.330
68 204.00 1200.02 329 899 1.340 10000.000 0.000 -0.330
69 207.00 1200.02 335 836 1.340 10000.000 0.000 -0.330
70 210.00 1200.02 339 788 1.340 10000.000 0.000 -0.330
71 213.00 1200.02 337 747 1.340 10000.000 0.000 -0.330
72 216.00 1200.02 319 743 1.340 10000.000 0.000 -0.330
73 219.00 1200.02 273 695 1.340 10000.000 0.000 -0.330
74 222.00 1200.02 267 632 1.340 10000.000 0.000 -0.330
75 225.00 1200.02 270 590 1.340 10000.000 0.000 -0.330
76 228.00 1200.02 286 647 1.340 10000.000 0.000 -0.330
77 231.00 1200.02 277 528 1.340 10000.000 0.000 -0.330
78 234.00 1200.02 262 519 1.340 10000.000 0.000 -0.330
79 237.00 1200.02 236 507 1.340 10000.000 0.000 -0.330
80 240.00 1200.02 260 504 1.340 10000.000 0.000 -0.330
81 243.00 1200.02 256 497 1.340 10000.000 0.000 -0.330
82 246.00 1200.02 263 449 1.340 10000.000 0.000 -0.330
83 249.00 1200.02 253 480 1.340 10000.000 0.000 -0.330
84 252.00 1200.02 260 504 1.340 10000.000 0.000 -0.330
85 255.00 1200.02 272 504 1.340 10000.000 0.000 -0.330
86 258.00 1200.02 285 552 1.340 10000.000 0.000 -0.330
87 261.00 1200.02 304 583 1.340 10000.000 0.000 -0.330
88 264.00 1200.02 311 648 1.340 10000.000 0.000 -0.330
89 267.00 1200.02 291 658 1.340 10000.000 0.000 -0.330
90 270.00 1200.02 352 676 1.340 10000.000 0.000 -0.330
91 273.00 1200.02 325 737 1.340 10000.000 0.000 -0.330
92 276.00 1200.02 343 780 1.340 10000.000 0.000 -0.330
93 279.00 1200.02 315 803 1.340 10000.000 0.000 -0.330
94 282.00 1200.02 360 872 1.340 10000.000 0.000 -0.330
95 285.00 1200.02 334 893 1.340 10000.000 0.000 -0.330
96 288.00 1200.02 346 930 1.340 10000.000 0.000 -0.330
97 291.00 1200.02 356 829 1.340 10000.000 0.000 -0.330
98 294.00 1200.02 341 917 1.340 10000.000 0.000 -0.330
99 297.00 1200.02 377 918 1.340 10000.000 0.000 -0.330
100 300.00 1200.02 358 891 1.340 10000.000 0.000 -0.330
101 303.00 1200.02 334 905 1.340 10000.000 0.000 -0.330
102 306.00 1200.02 340 857 1.340 10000.000 0.000 -0.330
103 309.00 1200.02 353 864 1.340 10000.000 0.000 -0.330
104 312.00 1200.02 330 829 1.340 10000.000 0.000 -0.330
105 315.00 1200.02 302 688 1.340 10000.000 0.000 -0.330
106 318.00 1200.02 296 746 1.340 10000.000 0.000 -0.330
107 321.00 1200.02 294 693 1.340 10000.000 0.000 -0.330
108 324.00 1200.02 292 653 1.340 10000.000 0.000 -0.330
109 327.00 1200.02 307 609 1.340 10000.000 0.000 -0.330
110 330.00 1200.02 259 559 1.340 10000.000 0.000 -0.330
111 333.00 1200.02 258 563 1.340 10000.000 0.000 -0.330
112 336.00 1200.02 256 531 1.340 10000.000 0.000 -0.330
113 339.00 1200.02 253 461 1.340 10000.000 0.000 -0.330
114 342.00 1200.02 299 491 1.340 10000.000 0.000 -0.330
115 345.00 1200.02 252 461 1.340 10000.000 0.000 -0.330
116 348.00 1200.02 250 468 1.340 10000.000 0.000 -0.330
117 351.00 1200.02 245 485 1.340 10000.000 0.000 -0.330
118 354.00 1200.02 284 557 1.340 10000.000 0.000 -0.330
119 357.00 1200.02 271 499 1.340 10000.000 0.000 -0.330
120 360.00 1200.02 283 588 1.340 10000.000 0.000 -0.330
121 363.00 1200.02 259 608 1.340 10000.000 0.000 -0.330
122 366.00 1200.02 292 612 1.340 10000.000 0.000 -0.330
123 369.00 1200.02 277 639 1.340 10000.000 0.000 -0.330
124 372.00 1200.02 307 752 1.340 10000.000 0.000 -0.330
125 375.00 1200.02 301 814 1.340 10000.000 0.000 -0.330
126 378.00 1200.02 340 825 1.340 10000.000 0.000 -0.330
127 381.00 1200.02 302 794 1.340 10000.000 0.000 -0.330
128 384.00 1200.02 338 904 1.340 10000.000 0.000 -0.330
129 387.00 1200.02 339 893 1.340 10000.000 0.000 -0.330
130 390.00 1200.02 366 939 1.340 10000.000 0.000 -0.330
131 393.00 1200.02 383 884 1.340 10000.000 0.000 -0.330
132 396.00 1200.02 351 897 1.340 10000.000 0.000 -0.330
133 399.00 1200.02 338 904 1.340 10000.000 0.000 -0.330
134 402.00 1200.02 329 896 1.340 10000.000 0.000 -0.330
