# BinNR microsec tot-time (s)  O-Beam AUX Ampl(V) f(Hz) phase(deg) chi(pos)
0 0.00 1200.02 82 257 1.340 10000.000 0.000 -1.165
1 3.00 1200.02 164 528 1.340 10000.000 0.000 -1.165
2 6.00 1200.02 139 623 1.340 10000.000 0.000 -1.165
3 9.00 1200.02 159 636 1.340 10000.000 0.000 -1.165
4 12.00 1200.02 202 646 1.340 10000.000 0.000 -1.165
5 15.00 1200.02 213 724 1.340 10000.000 0.000 -1.165
6 18.00 1200.02 218 754 1.340 10000.000 0.000 -1.165
7 21.00 1200.02 215 781 1.340 10000.000 0.000 -1.165
8 24.00 1200.02 242 852 1.340 10000.000 0.000 -1.165
9 27.00 1200.02 238 803 1.340 10000.000 0.000 -1.165
10 30.00 1200.02 236 914 1.340 10000.000 0.000 -1.165
11 33.00 1200.02 283 888 1.340 10000.000 0.000 -1.165
12 36.00 1200.02 281 915 1.340 10000.000 0.000 -1.165
13 39.00 1200.02 269 851 1.340 10000.000 0.000 -1.165
14 42.00 1200.02 245 892 1.340 10000.000 0.000 -1.165
15 45.00 1200.02 238 897 1.340 10000.000 0.000 -1.165
16 48.00 1200.02 261 878 1.340 10000.000 0.000 -1.165
17 51.00 1200.02 263 844 1.340 10000.000 0.000 -1.165
18 54.00 1200.02 267 813 1.340 10000.000 0.000 -1.165
19 57.00 1200.02 248 803 1.340 10000.000 0.000 -1.165
20 60.00 1200.02 226 835 1.340 10000.000 0.000 -1.165
21 63.00 1200.02 228 761 1.340 10000.000 0.000 -1.165
22 66.00 1200.02 189 792 1.340 10000.000 0.000 -1.165
23 69.00 1200.02 209 703 1.340 10000.000 0.000 -1.165
24 72.00 1200.02 198 736 1.340 10000.000 0.000 -1.165
25 75.00 1200.02 160 648 1.340 10000.000 0.000 -1.165
26 78.00 1200.02 190 638 1.340 10000.000 0.000 -1.165
27 81.00 1200.02 164 563 1.340 10000.000 0.000 -1.165
28 84.00 1200.02 157 576 1.340 10000.000 0.000 -1.165
29 87.00 1200.02 134 537 1.340 10000.000 0.000 -1.165
30 90.00 1200.02 137 458 1.340 10000.000 0.000 -1.165
31 93.00 1200.02 143 474 1.340 10000.000 0.000 -1.165
32 96.00 1200.02 143 474 1.340 10000.000 0.000 -1.165
33 99.00 1200.02 152 497 1.340 10000.000 0.000 -1.165
34 102.00 1200.02 158 555 1.340 10000.000 0.000 -1.165
35 105.00 1200.02 158 548 1.340 10000.000 0.000 -1.165
36 108.00 1200.02 171 585 1.340 10000.000 0.000 -1.165
37 111.00 1200.02 167 603 1.340 10000.000 0.000 -1.165
38 114.00 1200.02 185 611 1.340 10000.000 0.000 -1.165
39 117.00 1200.02 202 676 1.340 10000.000 0.000 -1.165
40 120.00 1200.02 235 723 1.340 10000.000 0.000 -1.165
41 123.00 1200.02 236 743 1.340 10000.000 0.000 -1.165
42 126.00 1200.02 243 712 1.340 10000.000 0.000 -1.165
43 129.00 1200.02 250 865 1.340 10000.000 0.000 -1.165
44 132.00 1200.02 275 817 1.340 10000.000 0.000 -1.165
45 135.00 1200.02 290 911 1.340 10000.000 0.000 -1.165
46 138.00 1200.02 271 881 1.340 10000.000 0.000 -1.165
47 141.00 1200.02 261 906 1.340 10000.000 0.000 -1.165
48 144.00 1200.02 272 942 1.340 10000.000 0.000 -1.165
49 147.00 1200.02 259 887 1.340 10000.000 0.000 -1.165
50 150.00 1200.02 281 946 1.340 10000.000 0.000 -1.165
51 153.00 1200.02 257 846 1.340 10000.000 0.000 -1.165
52 156.00 1200.02 240 855 1.340 10000.000 0.000 -1.165
53 159.00 1200.02 227 865 1.340 10000.000 0.000 -1.165
54 162.00 1200.02 206 860 1.340 10000.000 0.000 -1.165
55 165.00 1200.02 209 787 1.340 10000.000 0.000 -1.165
56 168.00 1200.02 205 744 1.340 10000.000 0.000 -1.165
57 171.00 1200.02 186 725 1.340 10000.000 0.000 -1.165
58 174.00 1200.02 189 641 1.340 10000.000 0.000 -1.165
59 177.00 1200.02 158 613 1.340 10000.000 0.000 -1.165
60 180.00 1200.02 159 587 1.340 10000.000 0.000 -1.165
61 183.00 1200.02 145 542 1.340 10000.000 0.000 -1.165
62 186.00 1200.02 146 549 1.340 10000.000 0.000 -1.165
63 189.00 1200.02 133 524 1.340 10000.000 0.000 -1.165
64 192.00 1200.02 148 509 1.340 10000.000 0.000 -1.165
65 195.00 1200.02 178 481 1.340 10000.000 0.000 -1.165
66 198.00 1200.02 173 473 1.340 10000.000 0.000 -1.165
67 201.00 1200.02 156 533 1.340 10000.000 0.000 -1.165
68 204.00 1200.02 158 538 1.340 10000.000 0.000 -1.165
69 207.00 1200.02 193 527 1.340 10000.000 0.000 -1.165
70 210.00 1200.02 177 591 1.340 10000.000 0.000 -1.165
71 213.00 1200.02 187 604 1.340 10000.000 0.000 -1.165
72 216.00 1200.02 236 667 1.340 10000.000 0.000 -1.165
73 219.00 1200.02 223 676 1.340 10000.000 0.000 -1.165
74 222.00 1200.02 231 752 1.340 10000.000 0.000 -1.165
75 225.00 1200.02 228 806 1.340 10000.000 0.000 -1.165
76 228.00 1200.02 251 840 1.340 10000.000 0.000 -1.165
77 231.00 1200.02 233 856 1.340 10000.000 0.000 -1.165
78 234.00 1200.02 265 927 1.340 10000.000 0.000 -1.165
79 237.00 1200.02 265 897 1.340 10000.000 0.000 -1.165
80 240.00 1200.02 306 902 1.340 10000.000 0.000 -1.165
81 243.00 1200.02 272 858 1.340 10000.000 0.000 -1.165
82 246.00 1200.02 265 903 1.340 10000.000 0.000 -1.165
83 249.00 1200.02 274 954 1.340 10000.000 0.000 -1.165
84 252.00 1200.02 253 883 1.340 10000.000 0.000 -1.165
85 255.00 1200.02 244 862 1.340 10000.000 0.000 -1.165
86 258.00 1200.02 249 814 1.340 10000.000 0.000 -1.165
87 261.00 1200.02 211 794 1.340 10000.000 0.000 -1.165
88 264.00 1200.02 199 825 1.340 10000.000 0.000 -1.165
89 267.00 1200.02 204 724 1.340 10000.000 0.000 -1.165
90 270.00 1200.02 188 665 1.340 10000.000 0.000 -1.165
91 273.00 1200.02 172 642 1.340 10000.000 0.000 -1.165
92 276.00 1200.02 186 662 1.340 10000.000 0.000 -1.165
93 279.00 1200.02 156 599 1.340 10000.000 0.000 -1.165
94 282.00 1200.02 142 565 1.340 10000.000 0.000 -1.165
95 285.00 1200.02 152 523 1.340 10000.000 0.000 -1.165
96 288.00 1200.02 137 493 1.340 10000.000 0.000 -1.165
97 291.00 1200.02 156 506 1.340 10000.000 0.000 -1.165
98 294.00 1200.02 166 477 1.340 10000.000 0.000 -1.165
99 297.00 1200.02 186 431 1.340 10000.000 0.000 -1.165
100 300.00 1200.02 184 518 1.340 10000.000 0.000 -1.165
101 303.00 1200.02 147 518 1.340 10000.000 0.000 -1.165
102 306.00 1200.02 175 524 1.340 10000.000 0.000 -1.165
103 309.00 1200.02 192 575 1.340 10000.000 0.000 -1.165
104 312.00 1200.02 199 609 1.340 10000.000 0.000 -1.165
105 315.00 1200.02 188 652 1.340 10000.000 0.000 -1.165
106 318.00 1200.02 222 699 1.340 10000.000 0.000 -1.165
107 321.00 1200.02 223 669 1.340 10000.000 0.000 -1.165
108 324.00 1200.02 246 725 1.340 10000.000 0.000 -1.165
109 327.00 1200.02 254 774 1.340 10000.000 0.000 -1.165
110 330.00 1200.02 244 797 1.340 10000.000 0.000 -1.165
111 333.00 1200.02 269 854 1.340 10000.000 0.000 -1.165
112 336.00 1200.02 233 874 1.340 10000.000 0.000 -1.165
113 339.00 1200.02 238 899 1.340 10000.000 0.000 -1.165
114 342.00 1200.02 277 920 1.340 10000.000 0.000 -1.165
115 345.00 1200.02 256 921 1.340 10000.000 0.000 -1.165
116 348.00 1200.02 264 832 1.340 10000.000 0.000 -1.165
117 351.00 1200.02 246 894 1.340 10000.000 0.000 -1.165
118 354.00 1200.02 279 903 1.340 10000.000 0.000 -1.165
119 357.00 1200.02 265 868 1.340 10000.000 0.000 -1.165
120 360.00 1200.02 275 843 1.340 10000.000 0.000 -1.165
121 363.00 1200.02 238 828 1.340 10000.000 0.000 -1.165
122 366.00 1200.02 236 809 1.340 10000.000 0.000 -1.165
123 369.00 1200.02 229 715 1.340 10000.000 0.000 -1.165
124 372.00 1200.02 197 723 1.340 10000.000 0.000 -1.165
125 375.00 1200.02 216 644 1.340 10000.000 0.000 -1.165
126 378.00 1200.02 189 629 1.340 10000.000 0.000 -1.165
127 381.00 1200.02 156 520 1.340 10000.000 0.000 -1.165
128 384.00 1200.02 172 546 1.340 10000.000 0.000 -1.165
129 387.00 1200.02 163 549 1.340 10000.000 0.000 -1.165
130 390.00 1200.02 162 506 1.340 10000.000 0.000 -1.165
131 393.00 1200.02 157 456 1.340 10000.000 0.000 -1.165
132 396.00 1200.02 162 483 1.340 10000.000 0.000 -1.165
133 399.00 1200.02 165 467 1.340 10000.000 0.000 -1.165
134 402.00 1200.02 155 529 1.340 10000.000 0.000 -1.165
