# BinNR microsec tot-time (s)  O-Beam AUX Ampl(V) f(Hz) phase(deg) chi(pos)
0 0.00 1200.01 83 155 2.000 10000.000 0.000 1.285
1 3.00 1200.01 194 361 2.000 10000.000 0.000 1.285
2 6.00 1200.01 192 416 2.000 10000.000 0.000 1.285
3 9.00 1200.01 199 433 2.000 10000.000 0.000 1.285
4 12.00 1200.01 188 502 2.000 10000.000 0.000 1.285
5 15.00 1200.01 211 499 2.000 10000.000 0.000 1.285
6 18.00 1200.01 214 485 2.000 10000.000 0.000 1.285
7 21.00 1200.01 208 491 2.000 10000.000 0.000 1.285
8 24.00 1200.01 180 498 2.000 10000.000 0.000 1.285
9 27.00 1200.01 215 428 2.000 10000.000 0.000 1.285
10 30.00 1200.01 190 401 2.000 10000.000 0.000 1.285
11 33.00 1200.01 192 365 2.000 10000.000 0.000 1.285
12 36.00 1200.01 180 331 2.000 10000.000 0.000 1.285
13 39.00 1200.01 147 284 2.000 10000.000 0.000 1.285
14 42.00 1200.01 150 229 2.000 10000.000 0.000 1.285
15 45.00 1200.01 154 235 2.000 10000.000 0.000 1.285
16 48.00 1200.01 163 276 2.000 10000.000 0.000 1.285
17 51.00 1200.01 189 298 2.000 10000.000 0.000 1.285
18 54.00 1200.01 185 305 2.000 10000.000 0.000 1.285
19 57.00 1200.01 186 355 2.000 10000.000 0.000 1.285
20 60.00 1200.01 189 409 2.000 10000.000 0.000 1.285
21 63.00 1200.01 194 386 2.000 10000.000 0.000 1.285
22 66.00 1200.01 200 452 2.000 10000.000 0.000 1.285
23 69.00 1200.01 221 390 2.000 10000.000 0.000 1.285
24 72.00 1200.01 182 377 2.000 10000.000 0.000 1.285
25 75.00 1200.01 216 397 2.000 10000.000 0.000 1.285
26 78.00 1200.01 194 349 2.000 10000.000 0.000 1.285
27 81.00 1200.01 215 274 2.000 10000.000 0.000 1.285
28 84.00 1200.01 180 276 2.000 10000.000 0.000 1.285
29 87.00 1200.01 149 256 2.000 10000.000 0.000 1.285
30 90.00 1200.01 160 216 2.000 10000.000 0.000 1.285
31 93.00 1200.01 180 247 2.000 10000.000 0.000 1.285
32 96.00 1200.01 183 274 2.000 10000.000 0.000 1.285
33 99.00 1200.01 171 326 2.000 10000.000 0.000 1.285
34 102.00 1200.01 190 353 2.000 10000.000 0.000 1.285
35 105.00 1200.01 191 379 2.000 10000.000 0.000 1.285
36 108.00 1200.01 184 426 2.000 10000.000 0.000 1.285
37 111.00 1200.01 187 471 2.000 10000.000 0.000 1.285
38 114.00 1200.01 215 543 2.000 10000.000 0.000 1.285
39 117.00 1200.01 189 504 2.000 10000.000 0.000 1.285
40 120.00 1200.01 231 512 2.000 10000.000 0.000 1.285
41 123.00 1200.01 164 497 2.000 10000.000 0.000 1.285
42 126.00 1200.01 200 482 2.000 10000.000 0.000 1.285
43 129.00 1200.01 146 417 2.000 10000.000 0.000 1.285
44 132.00 1200.01 174 380 2.000 10000.000 0.000 1.285
45 135.00 1200.01 173 288 2.000 10000.000 0.000 1.285
46 138.00 1200.01 167 283 2.000 10000.000 0.000 1.285
47 141.00 1200.01 143 256 2.000 10000.000 0.000 1.285
48 144.00 1200.01 161 224 2.000 10000.000 0.000 1.285
49 147.00 1200.01 166 224 2.000 10000.000 0.000 1.285
50 150.00 1200.01 159 269 2.000 10000.000 0.000 1.285
51 153.00 1200.01 189 289 2.000 10000.000 0.000 1.285
52 156.00 1200.01 172 325 2.000 10000.000 0.000 1.285
53 159.00 1200.01 194 316 2.000 10000.000 0.000 1.285
54 162.00 1200.01 190 387 2.000 10000.000 0.000 1.285
55 165.00 1200.01 194 358 2.000 10000.000 0.000 1.285
56 168.00 1200.01 229 431 2.000 10000.000 0.000 1.285
57 171.00 1200.01 189 410 2.000 10000.000 0.000 1.285
58 174.00 1200.01 203 382 2.000 10000.000 0.000 1.285
59 177.00 1200.01 230 340 2.000 10000.000 0.000 1.285
60 180.00 1200.01 190 346 2.000 10000.000 0.000 1.285
61 183.00 1200.01 174 285 2.000 10000.000 0.000 1.285
62 186.00 1200.01 199 239 2.000 10000.000 0.000 1.285
63 189.00 1200.01 188 245 2.000 10000.000 0.000 1.285
64 192.00 1200.01 185 231 2.000 10000.000 0.000 1.285
65 195.00 1200.01 160 263 2.000 10000.000 0.000 1.285
66 198.00 1200.01 170 290 2.000 10000.000 0.000 1.285
67 201.00 1200.01 155 321 2.000 10000.000 0.000 1.285
68 204.00 1200.01 201 406 2.000 10000.000 0.000 1.285
69 207.00 1200.01 187 386 2.000 10000.000 0.000 1.285
70 210.00 1200.01 184 473 2.000 10000.000 0.000 1.285
71 213.00 1200.01 177 489 2.000 10000.000 0.000 1.285
72 216.00 1200.01 201 533 2.000 10000.000 0.000 1.285
73 219.00 1200.01 205 536 2.000 10000.000 0.000 1.285
74 222.00 1200.01 208 553 2.000 10000.000 0.000 1.285
75 225.00 1200.01 208 502 2.000 10000.000 0.000 1.285
76 228.00 1200.01 205 432 2.000 10000.000 0.000 1.285
77 231.00 1200.01 180 415 2.000 10000.000 0.000 1.285
78 234.00 1200.01 174 345 2.000 10000.000 0.000 1.285
79 237.00 1200.01 181 294 2.000 10000.000 0.000 1.285
80 240.00 1200.01 167 272 2.000 10000.000 0.000 1.285
81 243.00 1200.01 130 251 2.000 10000.000 0.000 1.285
82 246.00 1200.01 167 251 2.000 10000.000 0.000 1.285
83 249.00 1200.01 171 267 2.000 10000.000 0.000 1.285
84 252.00 1200.01 170 292 2.000 10000.000 0.000 1.285
85 255.00 1200.01 186 317 2.000 10000.000 0.000 1.285
86 258.00 1200.01 191 354 2.000 10000.000 0.000 1.285
87 261.00 1200.01 184 377 2.000 10000.000 0.000 1.285
88 264.00 1200.01 209 345 2.000 10000.000 0.000 1.285
89 267.00 1200.01 194 406 2.000 10000.000 0.000 1.285
90 270.00 1200.01 203 439 2.000 10000.000 0.000 1.285
91 273.00 1200.01 218 429 2.000 10000.000 0.000 1.285
92 276.00 1200.01 200 360 2.000 10000.000 0.000 1.285
93 279.00 1200.01 212 354 2.000 10000.000 0.000 1.285
94 282.00 1200.01 188 293 2.000 10000.000 0.000 1.285
95 285.00 1200.01 167 255 2.000 10000.000 0.000 1.285
96 288.00 1200.01 208 264 2.000 10000.000 0.000 1.285
97 291.00 1200.01 156 258 2.000 10000.000 0.000 1.285
98 294.00 1200.01 176 243 2.000 10000.000 0.000 1.285
99 297.00 1200.01 173 289 2.000 10000.000 0.000 1.285
100 300.00 1200.01 147 252 2.000 10000.000 0.000 1.285
