# BinNR microsec tot-time (s)  O-Beam AUX Ampl(V) f(Hz) phase(deg) chi(pos)
0 0.00 1200.00 126 392 2.000 10000.000 0.000 1.483
1 3.00 1200.00 240 759 2.000 10000.000 0.000 1.483
2 6.00 1200.00 250 780 2.000 10000.000 0.000 1.483
3 9.00 1200.00 266 796 2.000 10000.000 0.000 1.483
4 12.00 1200.00 285 804 2.000 10000.000 0.000 1.483
5 15.00 1200.00 314 777 2.000 10000.000 0.000 1.483
6 18.00 1200.00 306 827 2.000 10000.000 0.000 1.483
7 21.00 1200.00 283 733 2.000 10000.000 0.000 1.483
8 24.00 1200.00 254 751 2.000 10000.000 0.000 1.483
9 27.00 1200.00 292 761 2.000 10000.000 0.000 1.483
10 30.00 1200.00 260 724 2.000 10000.000 0.000 1.483
11 33.00 1200.00 258 741 2.000 10000.000 0.000 1.483
12 36.00 1200.00 262 747 2.000 10000.000 0.000 1.483
13 39.00 1200.00 286 684 2.000 10000.000 0.000 1.483
14 42.00 1200.00 251 648 2.000 10000.000 0.000 1.483
15 45.00 1200.00 230 669 2.000 10000.000 0.000 1.483
16 48.00 1200.00 216 614 2.000 10000.000 0.000 1.483
17 51.00 1200.00 209 526 2.000 10000.000 0.000 1.483
18 54.00 1200.00 196 495 2.000 10000.000 0.000 1.483
19 57.00 1200.00 172 463 2.000 10000.000 0.000 1.483
20 60.00 1200.00 171 480 2.000 10000.000 0.000 1.483
21 63.00 1200.00 169 443 2.000 10000.000 0.000 1.483
22 66.00 1200.00 169 418 2.000 10000.000 0.000 1.483
23 69.00 1200.00 174 420 2.000 10000.000 0.000 1.483
24 72.00 1200.00 161 427 2.000 10000.000 0.000 1.483
25 75.00 1200.00 176 473 2.000 10000.000 0.000 1.483
26 78.00 1200.00 196 458 2.000 10000.000 0.000 1.483
27 81.00 1200.00 187 499 2.000 10000.000 0.000 1.483
28 84.00 1200.00 189 532 2.000 10000.000 0.000 1.483
29 87.00 1200.00 213 581 2.000 10000.000 0.000 1.483
30 90.00 1200.00 221 656 2.000 10000.000 0.000 1.483
31 93.00 1200.00 208 708 2.000 10000.000 0.000 1.483
32 96.00 1200.00 232 734 2.000 10000.000 0.000 1.483
33 99.00 1200.00 265 701 2.000 10000.000 0.000 1.483
34 102.00 1200.00 251 794 2.000 10000.000 0.000 1.483
35 105.00 1200.00 283 821 2.000 10000.000 0.000 1.483
36 108.00 1200.00 269 798 2.000 10000.000 0.000 1.483
37 111.00 1200.00 272 768 2.000 10000.000 0.000 1.483
38 114.00 1200.00 282 747 2.000 10000.000 0.000 1.483
39 117.00 1200.00 272 769 2.000 10000.000 0.000 1.483
40 120.00 1200.00 295 755 2.000 10000.000 0.000 1.483
41 123.00 1200.00 276 730 2.000 10000.000 0.000 1.483
42 126.00 1200.00 265 795 2.000 10000.000 0.000 1.483
43 129.00 1200.00 278 774 2.000 10000.000 0.000 1.483
44 132.00 1200.00 264 748 2.000 10000.000 0.000 1.483
45 135.00 1200.00 282 727 2.000 10000.000 0.000 1.483
46 138.00 1200.00 237 685 2.000 10000.000 0.000 1.483
47 141.00 1200.00 228 637 2.000 10000.000 0.000 1.483
48 144.00 1200.00 240 706 2.000 10000.000 0.000 1.483
49 147.00 1200.00 251 628 2.000 10000.000 0.000 1.483
50 150.00 1200.00 220 559 2.000 10000.000 0.000 1.483
51 153.00 1200.00 172 461 2.000 10000.000 0.000 1.483
52 156.00 1200.00 186 501 2.000 10000.000 0.000 1.483
53 159.00 1200.00 172 425 2.000 10000.000 0.000 1.483
54 162.00 1200.00 187 441 2.000 10000.000 0.000 1.483
55 165.00 1200.00 173 408 2.000 10000.000 0.000 1.483
56 168.00 1200.00 188 421 2.000 10000.000 0.000 1.483
57 171.00 1200.00 176 410 2.000 10000.000 0.000 1.483
58 174.00 1200.00 206 452 2.000 10000.000 0.000 1.483
59 177.00 1200.00 183 483 2.000 10000.000 0.000 1.483
60 180.00 1200.00 206 506 2.000 10000.000 0.000 1.483
61 183.00 1200.00 195 543 2.000 10000.000 0.000 1.483
62 186.00 1200.00 204 601 2.000 10000.000 0.000 1.483
63 189.00 1200.00 223 613 2.000 10000.000 0.000 1.483
64 192.00 1200.00 235 663 2.000 10000.000 0.000 1.483
65 195.00 1200.00 237 679 2.000 10000.000 0.000 1.483
66 198.00 1200.00 210 747 2.000 10000.000 0.000 1.483
67 201.00 1200.00 206 748 2.000 10000.000 0.000 1.483
68 204.00 1200.00 275 788 2.000 10000.000 0.000 1.483
69 207.00 1200.00 249 759 2.000 10000.000 0.000 1.483
70 210.00 1200.00 244 824 2.000 10000.000 0.000 1.483
71 213.00 1200.00 293 770 2.000 10000.000 0.000 1.483
72 216.00 1200.00 291 818 2.000 10000.000 0.000 1.483
73 219.00 1200.00 250 779 2.000 10000.000 0.000 1.483
74 222.00 1200.00 266 759 2.000 10000.000 0.000 1.483
75 225.00 1200.00 281 749 2.000 10000.000 0.000 1.483
76 228.00 1200.00 281 783 2.000 10000.000 0.000 1.483
77 231.00 1200.00 267 822 2.000 10000.000 0.000 1.483
78 234.00 1200.00 261 723 2.000 10000.000 0.000 1.483
79 237.00 1200.00 264 739 2.000 10000.000 0.000 1.483
80 240.00 1200.00 269 694 2.000 10000.000 0.000 1.483
81 243.00 1200.00 234 647 2.000 10000.000 0.000 1.483
82 246.00 1200.00 229 645 2.000 10000.000 0.000 1.483
83 249.00 1200.00 225 580 2.000 10000.000 0.000 1.483
84 252.00 1200.00 213 541 2.000 10000.000 0.000 1.483
85 255.00 1200.00 188 536 2.000 10000.000 0.000 1.483
86 258.00 1200.00 205 499 2.000 10000.000 0.000 1.483
87 261.00 1200.00 176 494 2.000 10000.000 0.000 1.483
88 264.00 1200.00 178 429 2.000 10000.000 0.000 1.483
89 267.00 1200.00 171 416 2.000 10000.000 0.000 1.483
90 270.00 1200.00 182 450 2.000 10000.000 0.000 1.483
91 273.00 1200.00 171 426 2.000 10000.000 0.000 1.483
92 276.00 1200.00 205 462 2.000 10000.000 0.000 1.483
93 279.00 1200.00 210 503 2.000 10000.000 0.000 1.483
94 282.00 1200.00 217 516 2.000 10000.000 0.000 1.483
95 285.00 1200.00 212 552 2.000 10000.000 0.000 1.483
96 288.00 1200.00 229 672 2.000 10000.000 0.000 1.483
97 291.00 1200.00 197 671 2.000 10000.000 0.000 1.483
98 294.00 1200.00 250 675 2.000 10000.000 0.000 1.483
99 297.00 1200.00 239 717 2.000 10000.000 0.000 1.483
100 300.00 1200.00 203 639 2.000 10000.000 0.000 1.483
