# BinNR microsec tot-time (s)  O-Beam AUX Ampl(V) f(Hz) phase(deg) chi(pos)
0 0.00 1200.00 176 510 2.000 10000.000 0.000 -0.308
1 3.00 1200.00 354 1022 2.000 10000.000 0.000 -0.308
2 6.00 1200.00 398 1020 2.000 10000.000 0.000 -0.308
3 9.00 1200.00 391 1054 2.000 10000.000 0.000 -0.308
4 12.00 1200.00 365 1017 2.000 10000.000 0.000 -0.308
5 15.00 1200.00 381 1011 2.000 10000.000 0.000 -0.308
6 18.00 1200.00 379 995 2.000 10000.000 0.000 -0.308
7 21.00 1200.00 391 1016 2.000 10000.000 0.000 -0.308
8 24.00 1200.00 383 1010 2.000 10000.000 0.000 -0.308
9 27.00 1200.00 381 1014 2.000 10000.000 0.000 -0.308
10 30.00 1200.00 338 1057 2.000 10000.000 0.000 -0.308
11 33.00 1200.00 380 1058 2.000 10000.000 0.000 -0.308
12 36.00 1200.00 360 1075 2.000 10000.000 0.000 -0.308
13 39.00 1200.00 347 1024 2.000 10000.000 0.000 -0.308
14 42.00 1200.00 367 996 2.000 10000.000 0.000 -0.308
15 45.00 1200.00 355 1007 2.000 10000.000 0.000 -0.308
16 48.00 1200.00 335 996 2.000 10000.000 0.000 -0.308
17 51.00 1200.00 339 874 2.000 10000.000 0.000 -0.308
18 54.00 1200.00 305 776 2.000 10000.000 0.000 -0.308
19 57.00 1200.00 284 807 2.000 10000.000 0.000 -0.308
20 60.00 1200.00 280 798 2.000 10000.000 0.000 -0.308
21 63.00 1200.00 264 762 2.000 10000.000 0.000 -0.308
22 66.00 1200.00 253 723 2.000 10000.000 0.000 -0.308
23 69.00 1200.00 277 656 2.000 10000.000 0.000 -0.308
24 72.00 1200.00 278 739 2.000 10000.000 0.000 -0.308
25 75.00 1200.00 288 751 2.000 10000.000 0.000 -0.308
26 78.00 1200.00 305 803 2.000 10000.000 0.000 -0.308
27 81.00 1200.00 292 775 2.000 10000.000 0.000 -0.308
28 84.00 1200.00 281 873 2.000 10000.000 0.000 -0.308
29 87.00 1200.00 332 924 2.000 10000.000 0.000 -0.308
30 90.00 1200.00 323 1002 2.000 10000.000 0.000 -0.308
31 93.00 1200.00 323 1024 2.000 10000.000 0.000 -0.308
32 96.00 1200.00 344 1083 2.000 10000.000 0.000 -0.308
33 99.00 1200.00 333 1036 2.000 10000.000 0.000 -0.308
34 102.00 1200.00 379 1097 2.000 10000.000 0.000 -0.308
35 105.00 1200.00 355 1028 2.000 10000.000 0.000 -0.308
36 108.00 1200.00 370 1048 2.000 10000.000 0.000 -0.308
37 111.00 1200.00 404 1065 2.000 10000.000 0.000 -0.308
38 114.00 1200.00 403 1065 2.000 10000.000 0.000 -0.308
39 117.00 1200.00 353 1023 2.000 10000.000 0.000 -0.308
40 120.00 1200.00 382 1015 2.000 10000.000 0.000 -0.308
41 123.00 1200.00 352 936 2.000 10000.000 0.000 -0.308
42 126.00 1200.00 376 1059 2.000 10000.000 0.000 -0.308
43 129.00 1200.00 411 1032 2.000 10000.000 0.000 -0.308
44 132.00 1200.00 382 1095 2.000 10000.000 0.000 -0.308
45 135.00 1200.00 396 1025 2.000 10000.000 0.000 -0.308
46 138.00 1200.00 358 1055 2.000 10000.000 0.000 -0.308
47 141.00 1200.00 356 1107 2.000 10000.000 0.000 -0.308
48 144.00 1200.00 354 1002 2.000 10000.000 0.000 -0.308
49 147.00 1200.00 355 958 2.000 10000.000 0.000 -0.308
50 150.00 1200.00 323 949 2.000 10000.000 0.000 -0.308
51 153.00 1200.00 310 838 2.000 10000.000 0.000 -0.308
52 156.00 1200.00 275 809 2.000 10000.000 0.000 -0.308
53 159.00 1200.00 304 735 2.000 10000.000 0.000 -0.308
54 162.00 1200.00 310 750 2.000 10000.000 0.000 -0.308
55 165.00 1200.00 288 676 2.000 10000.000 0.000 -0.308
56 168.00 1200.00 297 683 2.000 10000.000 0.000 -0.308
57 171.00 1200.00 265 689 2.000 10000.000 0.000 -0.308
58 174.00 1200.00 244 782 2.000 10000.000 0.000 -0.308
59 177.00 1200.00 274 716 2.000 10000.000 0.000 -0.308
60 180.00 1200.00 303 823 2.000 10000.000 0.000 -0.308
61 183.00 1200.00 309 879 2.000 10000.000 0.000 -0.308
62 186.00 1200.00 296 960 2.000 10000.000 0.000 -0.308
63 189.00 1200.00 334 981 2.000 10000.000 0.000 -0.308
64 192.00 1200.00 323 1034 2.000 10000.000 0.000 -0.308
65 195.00 1200.00 321 1050 2.000 10000.000 0.000 -0.308
66 198.00 1200.00 354 1148 2.000 10000.000 0.000 -0.308
67 201.00 1200.00 361 1064 2.000 10000.000 0.000 -0.308
68 204.00 1200.00 370 1054 2.000 10000.000 0.000 -0.308
69 207.00 1200.00 345 964 2.000 10000.000 0.000 -0.308
70 210.00 1200.00 389 1071 2.000 10000.000 0.000 -0.308
71 213.00 1200.00 388 1058 2.000 10000.000 0.000 -0.308
72 216.00 1200.00 380 998 2.000 10000.000 0.000 -0.308
73 219.00 1200.00 397 991 2.000 10000.000 0.000 -0.308
74 222.00 1200.00 362 1045 2.000 10000.000 0.000 -0.308
75 225.00 1200.00 348 1031 2.000 10000.000 0.000 -0.308
76 228.00 1200.00 377 1065 2.000 10000.000 0.000 -0.308
77 231.00 1200.00 345 1027 2.000 10000.000 0.000 -0.308
78 234.00 1200.00 374 1037 2.000 10000.000 0.000 -0.308
79 237.00 1200.00 366 1066 2.000 10000.000 0.000 -0.308
80 240.00 1200.00 379 1117 2.000 10000.000 0.000 -0.308
81 243.00 1200.00 355 1003 2.000 10000.000 0.000 -0.308
82 246.00 1200.00 350 914 2.000 10000.000 0.000 -0.308
83 249.00 1200.00 322 942 2.000 10000.000 0.000 -0.308
84 252.00 1200.00 340 901 2.000 10000.000 0.000 -0.308
85 255.00 1200.00 311 829 2.000 10000.000 0.000 -0.308
86 258.00 1200.00 296 798 2.000 10000.000 0.000 -0.308
87 261.00 1200.00 300 722 2.000 10000.000 0.000 -0.308
88 264.00 1200.00 285 756 2.000 10000.000 0.000 -0.308
89 267.00 1200.00 274 716 2.000 10000.000 0.000 -0.308
90 270.00 1200.00 280 742 2.000 10000.000 0.000 -0.308
91 273.00 1200.00 261 742 2.000 10000.000 0.000 -0.308
92 276.00 1200.00 294 752 2.000 10000.000 0.000 -0.308
93 279.00 1200.00 293 759 2.000 10000.000 0.000 -0.308
94 282.00 1200.00 327 821 2.000 10000.000 0.000 -0.308
95 285.00 1200.00 291 903 2.000 10000.000 0.000 -0.308
96 288.00 1200.00 317 994 2.000 10000.000 0.000 -0.308
97 291.00 1200.00 324 1008 2.000 10000.000 0.000 -0.308
98 294.00 1200.00 345 1097 2.000 10000.000 0.000 -0.308
99 297.00 1200.00 402 1050 2.000 10000.000 0.000 -0.308
100 300.00 1200.00 291 879 2.000 10000.000 0.000 -0.308
