# BinNR microsec tot-time (s)  O-Beam AUX Ampl_1(V) f_1(Hz) phase_1(deg) Ampl_2(V) f_2(Hz) phase_2(deg) chi(pos)
0 0.00 1500.01 595 1988 0.000 0.000 0.000 1.000 10000.000 0.000 1.505
1 3.00 1500.01 1237 3929 0.000 0.000 0.000 1.000 10000.000 0.000 1.505
2 6.00 1500.01 1188 4025 0.000 0.000 0.000 1.000 10000.000 0.000 1.505
3 9.00 1500.01 1185 3923 0.000 0.000 0.000 1.000 10000.000 0.000 1.505
4 12.00 1500.01 1187 4027 0.000 0.000 0.000 1.000 10000.000 0.000 1.505
5 15.00 1500.01 1177 3932 0.000 0.000 0.000 1.000 10000.000 0.000 1.505
6 18.00 1500.01 1187 4030 0.000 0.000 0.000 1.000 10000.000 0.000 1.505
7 21.00 1500.01 1150 3930 0.000 0.000 0.000 1.000 10000.000 0.000 1.505
8 24.00 1500.01 1237 4056 0.000 0.000 0.000 1.000 10000.000 0.000 1.505
9 27.00 1500.01 1172 3975 0.000 0.000 0.000 1.000 10000.000 0.000 1.505
10 30.00 1500.01 1149 3953 0.000 0.000 0.000 1.000 10000.000 0.000 1.505
11 33.00 1500.01 1140 3838 0.000 0.000 0.000 1.000 10000.000 0.000 1.505
12 36.00 1500.01 1204 4028 0.000 0.000 0.000 1.000 10000.000 0.000 1.505
13 39.00 1500.01 1221 3861 0.000 0.000 0.000 1.000 10000.000 0.000 1.505
14 42.00 1500.01 1252 3935 0.000 0.000 0.000 1.000 10000.000 0.000 1.505
15 45.00 1500.01 1136 3819 0.000 0.000 0.000 1.000 10000.000 0.000 1.505
16 48.00 1500.01 1207 3868 0.000 0.000 0.000 1.000 10000.000 0.000 1.505
17 51.00 1500.01 1079 3919 0.000 0.000 0.000 1.000 10000.000 0.000 1.505
18 54.00 1500.01 1156 3865 0.000 0.000 0.000 1.000 10000.000 0.000 1.505
19 57.00 1500.01 1079 3879 0.000 0.000 0.000 1.000 10000.000 0.000 1.505
20 60.00 1500.01 1175 3978 0.000 0.000 0.000 1.000 10000.000 0.000 1.505
21 63.00 1500.01 1181 3835 0.000 0.000 0.000 1.000 10000.000 0.000 1.505
22 66.00 1500.01 1221 4052 0.000 0.000 0.000 1.000 10000.000 0.000 1.505
23 69.00 1500.01 1215 3925 0.000 0.000 0.000 1.000 10000.000 0.000 1.505
24 72.00 1500.01 1196 4076 0.000 0.000 0.000 1.000 10000.000 0.000 1.505
25 75.00 1500.01 1206 4053 0.000 0.000 0.000 1.000 10000.000 0.000 1.505
26 78.00 1500.01 1270 4032 0.000 0.000 0.000 1.000 10000.000 0.000 1.505
27 81.00 1500.01 1145 3963 0.000 0.000 0.000 1.000 10000.000 0.000 1.505
28 84.00 1500.01 1186 3968 0.000 0.000 0.000 1.000 10000.000 0.000 1.505
29 87.00 1500.01 1177 3910 0.000 0.000 0.000 1.000 10000.000 0.000 1.505
30 90.00 1500.01 1203 3995 0.000 0.000 0.000 1.000 10000.000 0.000 1.505
31 93.00 1500.01 1160 3894 0.000 0.000 0.000 1.000 10000.000 0.000 1.505
32 96.00 1500.01 1205 3881 0.000 0.000 0.000 1.000 10000.000 0.000 1.505
33 99.00 1500.01 1182 3797 0.000 0.000 0.000 1.000 10000.000 0.000 1.505
34 102.00 1500.01 1205 4014 0.000 0.000 0.000 1.000 10000.000 0.000 1.505
35 105.00 1500.01 1156 3982 0.000 0.000 0.000 1.000 10000.000 0.000 1.505
36 108.00 1500.01 1176 4110 0.000 0.000 0.000 1.000 10000.000 0.000 1.505
37 111.00 1500.01 1191 3872 0.000 0.000 0.000 1.000 10000.000 0.000 1.505
38 114.00 1500.01 1275 3915 0.000 0.000 0.000 1.000 10000.000 0.000 1.505
39 117.00 1500.01 1148 4008 0.000 0.000 0.000 1.000 10000.000 0.000 1.505
40 120.00 1500.01 1196 4105 0.000 0.000 0.000 1.000 10000.000 0.000 1.505
41 123.00 1500.01 1139 3988 0.000 0.000 0.000 1.000 10000.000 0.000 1.505
42 126.00 1500.01 1190 4090 0.000 0.000 0.000 1.000 10000.000 0.000 1.505
43 129.00 1500.01 1118 3866 0.000 0.000 0.000 1.000 10000.000 0.000 1.505
44 132.00 1500.01 1213 3995 0.000 0.000 0.000 1.000 10000.000 0.000 1.505
45 135.00 1500.01 1129 3766 0.000 0.000 0.000 1.000 10000.000 0.000 1.505
46 138.00 1500.01 1190 3921 0.000 0.000 0.000 1.000 10000.000 0.000 1.505
47 141.00 1500.01 1102 3852 0.000 0.000 0.000 1.000 10000.000 0.000 1.505
48 144.00 1500.01 1303 3892 0.000 0.000 0.000 1.000 10000.000 0.000 1.505
49 147.00 1500.01 1146 3774 0.000 0.000 0.000 1.000 10000.000 0.000 1.505
50 150.00 1500.01 1184 3911 0.000 0.000 0.000 1.000 10000.000 0.000 1.505
51 153.00 1500.01 1156 3796 0.000 0.000 0.000 1.000 10000.000 0.000 1.505
52 156.00 1500.01 1201 3910 0.000 0.000 0.000 1.000 10000.000 0.000 1.505
53 159.00 1500.01 1182 3814 0.000 0.000 0.000 1.000 10000.000 0.000 1.505
54 162.00 1500.01 1157 3982 0.000 0.000 0.000 1.000 10000.000 0.000 1.505
55 165.00 1500.01 1198 3937 0.000 0.000 0.000 1.000 10000.000 0.000 1.505
56 168.00 1500.01 1168 3945 0.000 0.000 0.000 1.000 10000.000 0.000 1.505
57 171.00 1500.01 1187 3971 0.000 0.000 0.000 1.000 10000.000 0.000 1.505
58 174.00 1500.01 1159 4048 0.000 0.000 0.000 1.000 10000.000 0.000 1.505
59 177.00 1500.01 1197 4074 0.000 0.000 0.000 1.000 10000.000 0.000 1.505
60 180.00 1500.01 1184 4005 0.000 0.000 0.000 1.000 10000.000 0.000 1.505
61 183.00 1500.01 1182 3916 0.000 0.000 0.000 1.000 10000.000 0.000 1.505
62 186.00 1500.01 1219 3977 0.000 0.000 0.000 1.000 10000.000 0.000 1.505
63 189.00 1500.01 1173 3905 0.000 0.000 0.000 1.000 10000.000 0.000 1.505
64 192.00 1500.01 1208 4074 0.000 0.000 0.000 1.000 10000.000 0.000 1.505
65 195.00 1500.01 1225 3967 0.000 0.000 0.000 1.000 10000.000 0.000 1.505
66 198.00 1500.01 1207 3961 0.000 0.000 0.000 1.000 10000.000 0.000 1.505
67 201.00 1500.01 1233 4049 0.000 0.000 0.000 1.000 10000.000 0.000 1.505
68 204.00 1500.01 1215 3942 0.000 0.000 0.000 1.000 10000.000 0.000 1.505
69 207.00 1500.01 1193 3968 0.000 0.000 0.000 1.000 10000.000 0.000 1.505
70 210.00 1500.01 1243 4047 0.000 0.000 0.000 1.000 10000.000 0.000 1.505
71 213.00 1500.01 1176 3974 0.000 0.000 0.000 1.000 10000.000 0.000 1.505
72 216.00 1500.01 1214 4050 0.000 0.000 0.000 1.000 10000.000 0.000 1.505
73 219.00 1500.01 1140 4085 0.000 0.000 0.000 1.000 10000.000 0.000 1.505
74 222.00 1500.01 1161 4055 0.000 0.000 0.000 1.000 10000.000 0.000 1.505
75 225.00 1500.01 1192 4034 0.000 0.000 0.000 1.000 10000.000 0.000 1.505
76 228.00 1500.01 1193 4038 0.000 0.000 0.000 1.000 10000.000 0.000 1.505
77 231.00 1500.01 1087 3862 0.000 0.000 0.000 1.000 10000.000 0.000 1.505
78 234.00 1500.01 1204 3892 0.000 0.000 0.000 1.000 10000.000 0.000 1.505
79 237.00 1500.01 1195 3795 0.000 0.000 0.000 1.000 10000.000 0.000 1.505
80 240.00 1500.01 1205 3907 0.000 0.000 0.000 1.000 10000.000 0.000 1.505
81 243.00 1500.01 1166 3884 0.000 0.000 0.000 1.000 10000.000 0.000 1.505
82 246.00 1500.01 1188 3929 0.000 0.000 0.000 1.000 10000.000 0.000 1.505
83 249.00 1500.01 1133 3835 0.000 0.000 0.000 1.000 10000.000 0.000 1.505
84 252.00 1500.01 1195 3983 0.000 0.000 0.000 1.000 10000.000 0.000 1.505
85 255.00 1500.01 1229 3813 0.000 0.000 0.000 1.000 10000.000 0.000 1.505
86 258.00 1500.01 1215 3924 0.000 0.000 0.000 1.000 10000.000 0.000 1.505
87 261.00 1500.01 1131 3943 0.000 0.000 0.000 1.000 10000.000 0.000 1.505
88 264.00 1500.01 1220 4109 0.000 0.000 0.000 1.000 10000.000 0.000 1.505
89 267.00 1500.01 1117 3960 0.000 0.000 0.000 1.000 10000.000 0.000 1.505
90 270.00 1500.01 1228 3969 0.000 0.000 0.000 1.000 10000.000 0.000 1.505
91 273.00 1500.01 1157 4064 0.000 0.000 0.000 1.000 10000.000 0.000 1.505
92 276.00 1500.01 1234 4038 0.000 0.000 0.000 1.000 10000.000 0.000 1.505
93 279.00 1500.01 1162 3897 0.000 0.000 0.000 1.000 10000.000 0.000 1.505
94 282.00 1500.01 1233 3983 0.000 0.000 0.000 1.000 10000.000 0.000 1.505
95 285.00 1500.01 1199 3824 0.000 0.000 0.000 1.000 10000.000 0.000 1.505
96 288.00 1500.01 1166 4030 0.000 0.000 0.000 1.000 10000.000 0.000 1.505
97 291.00 1500.01 1141 3998 0.000 0.000 0.000 1.000 10000.000 0.000 1.505
98 294.00 1500.01 1241 3844 0.000 0.000 0.000 1.000 10000.000 0.000 1.505
99 297.00 1500.01 1150 3789 0.000 0.000 0.000 1.000 10000.000 0.000 1.505
100 300.00 1500.01 1123 3933 0.000 0.000 0.000 1.000 10000.000 0.000 1.505
101 303.00 1500.01 1223 3880 0.000 0.000 0.000 1.000 10000.000 0.000 1.505
102 306.00 1500.01 1180 4023 0.000 0.000 0.000 1.000 10000.000 0.000 1.505
103 309.00 1500.01 1176 3866 0.000 0.000 0.000 1.000 10000.000 0.000 1.505
104 312.00 1500.01 1209 4050 0.000 0.000 0.000 1.000 10000.000 0.000 1.505
105 315.00 1500.01 1168 4000 0.000 0.000 0.000 1.000 10000.000 0.000 1.505
106 318.00 1500.01 1230 3972 0.000 0.000 0.000 1.000 10000.000 0.000 1.505
107 321.00 1500.01 1167 3995 0.000 0.000 0.000 1.000 10000.000 0.000 1.505
108 324.00 1500.01 1202 4046 0.000 0.000 0.000 1.000 10000.000 0.000 1.505
109 327.00 1500.01 1096 4007 0.000 0.000 0.000 1.000 10000.000 0.000 1.505
110 330.00 1500.01 1169 4044 0.000 0.000 0.000 1.000 10000.000 0.000 1.505
111 333.00 1500.01 1143 3838 0.000 0.000 0.000 1.000 10000.000 0.000 1.505
112 336.00 1500.01 1191 3852 0.000 0.000 0.000 1.000 10000.000 0.000 1.505
113 339.00 1500.01 1197 3806 0.000 0.000 0.000 1.000 10000.000 0.000 1.505
114 342.00 1500.01 1170 3893 0.000 0.000 0.000 1.000 10000.000 0.000 1.505
115 345.00 1500.01 1195 3758 0.000 0.000 0.000 1.000 10000.000 0.000 1.505
116 348.00 1500.01 1136 3936 0.000 0.000 0.000 1.000 10000.000 0.000 1.505
117 351.00 1500.01 1156 3901 0.000 0.000 0.000 1.000 10000.000 0.000 1.505
118 354.00 1500.01 1148 3939 0.000 0.000 0.000 1.000 10000.000 0.000 1.505
119 357.00 1500.01 1169 3882 0.000 0.000 0.000 1.000 10000.000 0.000 1.505
120 360.00 1500.01 1189 3811 0.000 0.000 0.000 1.000 10000.000 0.000 1.505
121 363.00 1500.01 1157 3884 0.000 0.000 0.000 1.000 10000.000 0.000 1.505
122 366.00 1500.01 1213 3972 0.000 0.000 0.000 1.000 10000.000 0.000 1.505
123 369.00 1500.01 1173 3985 0.000 0.000 0.000 1.000 10000.000 0.000 1.505
124 372.00 1500.01 1253 3889 0.000 0.000 0.000 1.000 10000.000 0.000 1.505
125 375.00 1500.01 1202 3873 0.000 0.000 0.000 1.000 10000.000 0.000 1.505
126 378.00 1500.01 1172 3907 0.000 0.000 0.000 1.000 10000.000 0.000 1.505
127 381.00 1500.01 1183 3916 0.000 0.000 0.000 1.000 10000.000 0.000 1.505
128 384.00 1500.01 1178 3999 0.000 0.000 0.000 1.000 10000.000 0.000 1.505
129 387.00 1500.01 1147 3929 0.000 0.000 0.000 1.000 10000.000 0.000 1.505
130 390.00 1500.01 1195 3909 0.000 0.000 0.000 1.000 10000.000 0.000 1.505
131 393.00 1500.01 1133 3936 0.000 0.000 0.000 1.000 10000.000 0.000 1.505
132 396.00 1500.01 1176 3969 0.000 0.000 0.000 1.000 10000.000 0.000 1.505
133 399.00 1500.01 1165 3899 0.000 0.000 0.000 1.000 10000.000 0.000 1.505
134 402.00 1500.01 1121 3973 0.000 0.000 0.000 1.000 10000.000 0.000 1.505
