# BinNR microsec tot-time (s)  O-Beam AUX Ampl(V) f(Hz) phase(deg) chi(pos)
0 0.00 1200.01 145 243 1.100 10000.000 0.000 0.088
1 3.00 1200.01 299 526 1.100 10000.000 0.000 0.088
2 6.00 1200.01 288 574 1.100 10000.000 0.000 0.088
3 9.00 1200.01 302 534 1.100 10000.000 0.000 0.088
4 12.00 1200.01 298 535 1.100 10000.000 0.000 0.088
5 15.00 1200.01 309 561 1.100 10000.000 0.000 0.088
6 18.00 1200.01 311 564 1.100 10000.000 0.000 0.088
7 21.00 1200.01 330 543 1.100 10000.000 0.000 0.088
8 24.00 1200.01 321 575 1.100 10000.000 0.000 0.088
9 27.00 1200.01 281 566 1.100 10000.000 0.000 0.088
10 30.00 1200.01 320 549 1.100 10000.000 0.000 0.088
11 33.00 1200.01 292 570 1.100 10000.000 0.000 0.088
12 36.00 1200.01 309 570 1.100 10000.000 0.000 0.088
13 39.00 1200.01 346 590 1.100 10000.000 0.000 0.088
14 42.00 1200.01 319 591 1.100 10000.000 0.000 0.088
15 45.00 1200.01 288 587 1.100 10000.000 0.000 0.088
16 48.00 1200.01 323 599 1.100 10000.000 0.000 0.088
17 51.00 1200.01 321 580 1.100 10000.000 0.000 0.088
18 54.00 1200.01 325 615 1.100 10000.000 0.000 0.088
19 57.00 1200.01 323 619 1.100 10000.000 0.000 0.088
20 60.00 1200.01 301 544 1.100 10000.000 0.000 0.088
21 63.00 1200.01 344 608 1.100 10000.000 0.000 0.088
22 66.00 1200.01 316 641 1.100 10000.000 0.000 0.088
23 69.00 1200.01 336 573 1.100 10000.000 0.000 0.088
24 72.00 1200.01 354 541 1.100 10000.000 0.000 0.088
25 75.00 1200.01 320 593 1.100 10000.000 0.000 0.088
26 78.00 1200.01 281 586 1.100 10000.000 0.000 0.088
27 81.00 1200.01 301 584 1.100 10000.000 0.000 0.088
28 84.00 1200.01 305 556 1.100 10000.000 0.000 0.088
29 87.00 1200.01 298 565 1.100 10000.000 0.000 0.088
30 90.00 1200.01 340 561 1.100 10000.000 0.000 0.088
31 93.00 1200.01 270 512 1.100 10000.000 0.000 0.088
32 96.00 1200.01 280 571 1.100 10000.000 0.000 0.088
33 99.00 1200.01 288 558 1.100 10000.000 0.000 0.088
34 102.00 1200.01 310 561 1.100 10000.000 0.000 0.088
35 105.00 1200.01 298 541 1.100 10000.000 0.000 0.088
36 108.00 1200.01 305 492 1.100 10000.000 0.000 0.088
37 111.00 1200.01 337 552 1.100 10000.000 0.000 0.088
38 114.00 1200.01 327 569 1.100 10000.000 0.000 0.088
39 117.00 1200.01 304 562 1.100 10000.000 0.000 0.088
40 120.00 1200.01 289 569 1.100 10000.000 0.000 0.088
41 123.00 1200.01 311 597 1.100 10000.000 0.000 0.088
42 126.00 1200.01 302 573 1.100 10000.000 0.000 0.088
43 129.00 1200.01 288 538 1.100 10000.000 0.000 0.088
44 132.00 1200.01 318 545 1.100 10000.000 0.000 0.088
45 135.00 1200.01 320 575 1.100 10000.000 0.000 0.088
46 138.00 1200.01 307 542 1.100 10000.000 0.000 0.088
47 141.00 1200.01 315 614 1.100 10000.000 0.000 0.088
48 144.00 1200.01 325 638 1.100 10000.000 0.000 0.088
49 147.00 1200.01 330 573 1.100 10000.000 0.000 0.088
50 150.00 1200.01 334 628 1.100 10000.000 0.000 0.088
51 153.00 1200.01 321 617 1.100 10000.000 0.000 0.088
52 156.00 1200.01 317 604 1.100 10000.000 0.000 0.088
53 159.00 1200.01 360 566 1.100 10000.000 0.000 0.088
54 162.00 1200.01 325 619 1.100 10000.000 0.000 0.088
55 165.00 1200.01 310 594 1.100 10000.000 0.000 0.088
56 168.00 1200.01 345 636 1.100 10000.000 0.000 0.088
57 171.00 1200.01 330 584 1.100 10000.000 0.000 0.088
58 174.00 1200.01 335 605 1.100 10000.000 0.000 0.088
59 177.00 1200.01 268 552 1.100 10000.000 0.000 0.088
60 180.00 1200.01 367 574 1.100 10000.000 0.000 0.088
61 183.00 1200.01 293 556 1.100 10000.000 0.000 0.088
62 186.00 1200.01 314 595 1.100 10000.000 0.000 0.088
63 189.00 1200.01 287 524 1.100 10000.000 0.000 0.088
64 192.00 1200.01 297 592 1.100 10000.000 0.000 0.088
65 195.00 1200.01 290 526 1.100 10000.000 0.000 0.088
66 198.00 1200.01 327 532 1.100 10000.000 0.000 0.088
67 201.00 1200.01 278 507 1.100 10000.000 0.000 0.088
68 204.00 1200.01 289 589 1.100 10000.000 0.000 0.088
69 207.00 1200.01 303 507 1.100 10000.000 0.000 0.088
70 210.00 1200.01 291 547 1.100 10000.000 0.000 0.088
71 213.00 1200.01 293 547 1.100 10000.000 0.000 0.088
72 216.00 1200.01 304 543 1.100 10000.000 0.000 0.088
73 219.00 1200.01 302 589 1.100 10000.000 0.000 0.088
74 222.00 1200.01 305 604 1.100 10000.000 0.000 0.088
75 225.00 1200.01 320 543 1.100 10000.000 0.000 0.088
76 228.00 1200.01 281 544 1.100 10000.000 0.000 0.088
77 231.00 1200.01 298 576 1.100 10000.000 0.000 0.088
78 234.00 1200.01 336 609 1.100 10000.000 0.000 0.088
79 237.00 1200.01 320 585 1.100 10000.000 0.000 0.088
80 240.00 1200.01 292 574 1.100 10000.000 0.000 0.088
81 243.00 1200.01 285 546 1.100 10000.000 0.000 0.088
82 246.00 1200.01 323 604 1.100 10000.000 0.000 0.088
83 249.00 1200.01 334 581 1.100 10000.000 0.000 0.088
84 252.00 1200.01 318 618 1.100 10000.000 0.000 0.088
85 255.00 1200.01 335 567 1.100 10000.000 0.000 0.088
86 258.00 1200.01 331 589 1.100 10000.000 0.000 0.088
87 261.00 1200.01 311 621 1.100 10000.000 0.000 0.088
88 264.00 1200.01 346 621 1.100 10000.000 0.000 0.088
89 267.00 1200.01 319 610 1.100 10000.000 0.000 0.088
90 270.00 1200.01 343 577 1.100 10000.000 0.000 0.088
91 273.00 1200.01 313 569 1.100 10000.000 0.000 0.088
92 276.00 1200.01 336 595 1.100 10000.000 0.000 0.088
93 279.00 1200.01 341 613 1.100 10000.000 0.000 0.088
94 282.00 1200.01 331 580 1.100 10000.000 0.000 0.088
95 285.00 1200.01 320 588 1.100 10000.000 0.000 0.088
96 288.00 1200.01 316 546 1.100 10000.000 0.000 0.088
97 291.00 1200.01 312 530 1.100 10000.000 0.000 0.088
98 294.00 1200.01 328 540 1.100 10000.000 0.000 0.088
99 297.00 1200.01 279 567 1.100 10000.000 0.000 0.088
100 300.00 1200.01 258 483 1.100 10000.000 0.000 0.088
