# BinNR microsec tot-time (s)  O-Beam AUX Ampl_1(V) f_1(Hz) phase_1(deg) Ampl_2(V) f_2(Hz) phase_2(deg) chi(pos)
0 0.00 600.02 54 154 0.000 3.100 10000.000 0.000
1 3.00 600.02 131 290 0.000 3.100 10000.000 0.000
2 6.00 600.02 117 271 0.000 3.100 10000.000 0.000
3 9.00 600.02 97 234 0.000 3.100 10000.000 0.000
4 12.00 600.02 104 213 0.000 3.100 10000.000 0.000
5 15.00 600.02 102 198 0.000 3.100 10000.000 0.000
6 18.00 600.02 116 191 0.000 3.100 10000.000 0.000
7 21.00 600.02 126 199 0.000 3.100 10000.000 0.000
8 24.00 600.02 118 192 0.000 3.100 10000.000 0.000
9 27.00 600.02 119 203 0.000 3.100 10000.000 0.000
10 30.00 600.02 123 260 0.000 3.100 10000.000 0.000
11 33.00 600.02 149 292 0.000 3.100 10000.000 0.000
12 36.00 600.02 130 355 0.000 3.100 10000.000 0.000
13 39.00 600.02 162 329 0.000 3.100 10000.000 0.000
14 42.00 600.02 182 370 0.000 3.100 10000.000 0.000
15 45.00 600.02 156 391 0.000 3.100 10000.000 0.000
16 48.00 600.02 158 398 0.000 3.100 10000.000 0.000
17 51.00 600.02 155 396 0.000 3.100 10000.000 0.000
18 54.00 600.02 163 425 0.000 3.100 10000.000 0.000
19 57.00 600.02 178 400 0.000 3.100 10000.000 0.000
20 60.00 600.02 162 409 0.000 3.100 10000.000 0.000
21 63.00 600.02 163 424 0.000 3.100 10000.000 0.000
22 66.00 600.02 148 390 0.000 3.100 10000.000 0.000
23 69.00 600.02 133 386 0.000 3.100 10000.000 0.000
24 72.00 600.02 155 417 0.000 3.100 10000.000 0.000
25 75.00 600.02 121 352 0.000 3.100 10000.000 0.000
26 78.00 600.02 126 346 0.000 3.100 10000.000 0.000
27 81.00 600.02 119 327 0.000 3.100 10000.000 0.000
28 84.00 600.02 146 298 0.000 3.100 10000.000 0.000
29 87.00 600.02 133 229 0.000 3.100 10000.000 0.000
30 90.00 600.02 116 241 0.000 3.100 10000.000 0.000
31 93.00 600.02 105 241 0.000 3.100 10000.000 0.000
32 96.00 600.02 130 205 0.000 3.100 10000.000 0.000
33 99.00 600.02 101 199 0.000 3.100 10000.000 0.000
34 102.00 600.02 137 177 0.000 3.100 10000.000 0.000
35 105.00 600.02 125 181 0.000 3.100 10000.000 0.000
36 108.00 600.02 137 198 0.000 3.100 10000.000 0.000
37 111.00 600.02 130 192 0.000 3.100 10000.000 0.000
38 114.00 600.02 114 216 0.000 3.100 10000.000 0.000
39 117.00 600.02 128 185 0.000 3.100 10000.000 0.000
40 120.00 600.02 154 240 0.000 3.100 10000.000 0.000
41 123.00 600.02 139 210 0.000 3.100 10000.000 0.000
42 126.00 600.02 150 237 0.000 3.100 10000.000 0.000
43 129.00 600.02 133 291 0.000 3.100 10000.000 0.000
44 132.00 600.02 145 316 0.000 3.100 10000.000 0.000
45 135.00 600.02 141 273 0.000 3.100 10000.000 0.000
46 138.00 600.02 147 381 0.000 3.100 10000.000 0.000
47 141.00 600.02 129 333 0.000 3.100 10000.000 0.000
48 144.00 600.02 142 356 0.000 3.100 10000.000 0.000
49 147.00 600.02 125 346 0.000 3.100 10000.000 0.000
50 150.00 600.02 146 446 0.000 3.100 10000.000 0.000
51 153.00 600.02 123 414 0.000 3.100 10000.000 0.000
52 156.00 600.02 119 393 0.000 3.100 10000.000 0.000
53 159.00 600.02 151 408 0.000 3.100 10000.000 0.000
54 162.00 600.02 129 394 0.000 3.100 10000.000 0.000
55 165.00 600.02 126 391 0.000 3.100 10000.000 0.000
56 168.00 600.02 148 377 0.000 3.100 10000.000 0.000
57 171.00 600.02 143 382 0.000 3.100 10000.000 0.000
58 174.00 600.02 116 366 0.000 3.100 10000.000 0.000
59 177.00 600.02 137 315 0.000 3.100 10000.000 0.000
60 180.00 600.02 150 321 0.000 3.100 10000.000 0.000
61 183.00 600.02 150 306 0.000 3.100 10000.000 0.000
62 186.00 600.02 138 287 0.000 3.100 10000.000 0.000
63 189.00 600.02 132 260 0.000 3.100 10000.000 0.000
64 192.00 600.02 143 209 0.000 3.100 10000.000 0.000
65 195.00 600.02 125 214 0.000 3.100 10000.000 0.000
66 198.00 600.02 132 206 0.000 3.100 10000.000 0.000
67 201.00 600.02 141 182 0.000 3.100 10000.000 0.000
68 204.00 600.02 135 182 0.000 3.100 10000.000 0.000
69 207.00 600.02 162 202 0.000 3.100 10000.000 0.000
70 210.00 600.02 150 218 0.000 3.100 10000.000 0.000
71 213.00 600.02 144 266 0.000 3.100 10000.000 0.000
72 216.00 600.02 132 286 0.000 3.100 10000.000 0.000
73 219.00 600.02 124 333 0.000 3.100 10000.000 0.000
74 222.00 600.02 153 341 0.000 3.100 10000.000 0.000
75 225.00 600.02 129 335 0.000 3.100 10000.000 0.000
76 228.00 600.02 136 318 0.000 3.100 10000.000 0.000
77 231.00 600.02 132 292 0.000 3.100 10000.000 0.000
78 234.00 600.02 153 296 0.000 3.100 10000.000 0.000
79 237.00 600.02 121 285 0.000 3.100 10000.000 0.000
80 240.00 600.02 134 261 0.000 3.100 10000.000 0.000
81 243.00 600.02 156 275 0.000 3.100 10000.000 0.000
82 246.00 600.02 141 269 0.000 3.100 10000.000 0.000
83 249.00 600.02 138 276 0.000 3.100 10000.000 0.000
84 252.00 600.02 139 297 0.000 3.100 10000.000 0.000
85 255.00 600.02 136 299 0.000 3.100 10000.000 0.000
86 258.00 600.02 157 279 0.000 3.100 10000.000 0.000
87 261.00 600.02 137 281 0.000 3.100 10000.000 0.000
88 264.00 600.02 137 302 0.000 3.100 10000.000 0.000
89 267.00 600.02 122 281 0.000 3.100 10000.000 0.000
90 270.00 600.02 145 287 0.000 3.100 10000.000 0.000
91 273.00 600.02 134 260 0.000 3.100 10000.000 0.000
92 276.00 600.02 131 294 0.000 3.100 10000.000 0.000
93 279.00 600.02 143 268 0.000 3.100 10000.000 0.000
94 282.00 600.02 141 301 0.000 3.100 10000.000 0.000
95 285.00 600.02 134 291 0.000 3.100 10000.000 0.000
96 288.00 600.02 142 309 0.000 3.100 10000.000 0.000
97 291.00 600.02 134 278 0.000 3.100 10000.000 0.000
98 294.00 600.02 148 304 0.000 3.100 10000.000 0.000
99 297.00 600.02 143 299 0.000 3.100 10000.000 0.000
100 300.00 600.02 121 282 0.000 3.100 10000.000 0.000
101 303.00 600.02 129 307 0.000 3.100 10000.000 0.000
102 306.00 600.02 132 322 0.000 3.100 10000.000 0.000
103 309.00 600.02 122 289 0.000 3.100 10000.000 0.000
104 312.00 600.02 138 299 0.000 3.100 10000.000 0.000
105 315.00 600.02 121 332 0.000 3.100 10000.000 0.000
106 318.00 600.02 114 312 0.000 3.100 10000.000 0.000
107 321.00 600.02 115 300 0.000 3.100 10000.000 0.000
108 324.00 600.02 106 297 0.000 3.100 10000.000 0.000
109 327.00 600.02 113 279 0.000 3.100 10000.000 0.000
110 330.00 600.02 132 292 0.000 3.100 10000.000 0.000
111 333.00 600.02 126 270 0.000 3.100 10000.000 0.000
112 336.00 600.02 125 300 0.000 3.100 10000.000 0.000
113 339.00 600.02 149 297 0.000 3.100 10000.000 0.000
114 342.00 600.02 153 302 0.000 3.100 10000.000 0.000
115 345.00 600.02 154 291 0.000 3.100 10000.000 0.000
116 348.00 600.02 178 299 0.000 3.100 10000.000 0.000
117 351.00 600.02 159 291 0.000 3.100 10000.000 0.000
118 354.00 600.02 146 270 0.000 3.100 10000.000 0.000
119 357.00 600.02 168 298 0.000 3.100 10000.000 0.000
120 360.00 600.02 166 288 0.000 3.100 10000.000 0.000
121 363.00 600.02 157 283 0.000 3.100 10000.000 0.000
122 366.00 600.02 154 287 0.000 3.100 10000.000 0.000
123 369.00 600.02 157 269 0.000 3.100 10000.000 0.000
124 372.00 600.02 133 278 0.000 3.100 10000.000 0.000
125 375.00 600.02 165 270 0.000 3.100 10000.000 0.000
126 378.00 600.02 164 269 0.000 3.100 10000.000 0.000
127 381.00 600.02 138 297 0.000 3.100 10000.000 0.000
128 384.00 600.02 152 314 0.000 3.100 10000.000 0.000
129 387.00 600.02 135 285 0.000 3.100 10000.000 0.000
130 390.00 600.02 148 306 0.000 3.100 10000.000 0.000
131 393.00 600.02 121 302 0.000 3.100 10000.000 0.000
132 396.00 600.02 128 297 0.000 3.100 10000.000 0.000
133 399.00 600.02 89 283 0.000 3.100 10000.000 0.000
134 402.00 600.02 105 277 0.000 3.100 10000.000 0.000
