# BinNR microsec tot-time (s)  O-Beam AUX Ampl(V) f(Hz) phase(deg) chi(pos)
0 0.00 1500.00 83 248 0.740 10000.000 0.000 1.329
1 3.00 1500.00 175 507 0.740 10000.000 0.000 1.329
2 6.00 1500.00 151 485 0.740 10000.000 0.000 1.329
3 9.00 1500.00 165 493 0.740 10000.000 0.000 1.329
4 12.00 1500.00 228 511 0.740 10000.000 0.000 1.329
5 15.00 1500.00 202 545 0.740 10000.000 0.000 1.329
6 18.00 1500.00 207 500 0.740 10000.000 0.000 1.329
7 21.00 1500.00 214 543 0.740 10000.000 0.000 1.329
8 24.00 1500.00 236 576 0.740 10000.000 0.000 1.329
9 27.00 1500.00 215 614 0.740 10000.000 0.000 1.329
10 30.00 1500.00 199 595 0.740 10000.000 0.000 1.329
11 33.00 1500.00 221 594 0.740 10000.000 0.000 1.329
12 36.00 1500.00 220 648 0.740 10000.000 0.000 1.329
13 39.00 1500.00 223 583 0.740 10000.000 0.000 1.329
14 42.00 1500.00 217 597 0.740 10000.000 0.000 1.329
15 45.00 1500.00 216 539 0.740 10000.000 0.000 1.329
16 48.00 1500.00 225 543 0.740 10000.000 0.000 1.329
17 51.00 1500.00 221 513 0.740 10000.000 0.000 1.329
18 54.00 1500.00 223 494 0.740 10000.000 0.000 1.329
19 57.00 1500.00 188 486 0.740 10000.000 0.000 1.329
20 60.00 1500.00 203 524 0.740 10000.000 0.000 1.329
21 63.00 1500.00 193 543 0.740 10000.000 0.000 1.329
22 66.00 1500.00 187 547 0.740 10000.000 0.000 1.329
23 69.00 1500.00 184 549 0.740 10000.000 0.000 1.329
24 72.00 1500.00 157 573 0.740 10000.000 0.000 1.329
25 75.00 1500.00 134 639 0.740 10000.000 0.000 1.329
26 78.00 1500.00 161 636 0.740 10000.000 0.000 1.329
27 81.00 1500.00 134 626 0.740 10000.000 0.000 1.329
28 84.00 1500.00 141 691 0.740 10000.000 0.000 1.329
29 87.00 1500.00 135 716 0.740 10000.000 0.000 1.329
30 90.00 1500.00 145 715 0.740 10000.000 0.000 1.329
31 93.00 1500.00 182 712 0.740 10000.000 0.000 1.329
32 96.00 1500.00 167 759 0.740 10000.000 0.000 1.329
33 99.00 1500.00 154 717 0.740 10000.000 0.000 1.329
34 102.00 1500.00 154 725 0.740 10000.000 0.000 1.329
35 105.00 1500.00 166 731 0.740 10000.000 0.000 1.329
36 108.00 1500.00 193 791 0.740 10000.000 0.000 1.329
37 111.00 1500.00 193 745 0.740 10000.000 0.000 1.329
38 114.00 1500.00 174 688 0.740 10000.000 0.000 1.329
39 117.00 1500.00 188 696 0.740 10000.000 0.000 1.329
40 120.00 1500.00 238 634 0.740 10000.000 0.000 1.329
41 123.00 1500.00 188 590 0.740 10000.000 0.000 1.329
42 126.00 1500.00 239 571 0.740 10000.000 0.000 1.329
43 129.00 1500.00 214 518 0.740 10000.000 0.000 1.329
44 132.00 1500.00 217 520 0.740 10000.000 0.000 1.329
45 135.00 1500.00 249 463 0.740 10000.000 0.000 1.329
46 138.00 1500.00 239 521 0.740 10000.000 0.000 1.329
47 141.00 1500.00 199 419 0.740 10000.000 0.000 1.329
48 144.00 1500.00 235 448 0.740 10000.000 0.000 1.329
49 147.00 1500.00 217 468 0.740 10000.000 0.000 1.329
50 150.00 1500.00 237 440 0.740 10000.000 0.000 1.329
51 153.00 1500.00 212 444 0.740 10000.000 0.000 1.329
52 156.00 1500.00 202 436 0.740 10000.000 0.000 1.329
53 159.00 1500.00 199 478 0.740 10000.000 0.000 1.329
54 162.00 1500.00 173 510 0.740 10000.000 0.000 1.329
55 165.00 1500.00 162 510 0.740 10000.000 0.000 1.329
56 168.00 1500.00 171 550 0.740 10000.000 0.000 1.329
57 171.00 1500.00 164 564 0.740 10000.000 0.000 1.329
58 174.00 1500.00 149 661 0.740 10000.000 0.000 1.329
59 177.00 1500.00 148 588 0.740 10000.000 0.000 1.329
60 180.00 1500.00 166 606 0.740 10000.000 0.000 1.329
61 183.00 1500.00 134 687 0.740 10000.000 0.000 1.329
62 186.00 1500.00 138 739 0.740 10000.000 0.000 1.329
63 189.00 1500.00 114 740 0.740 10000.000 0.000 1.329
64 192.00 1500.00 151 750 0.740 10000.000 0.000 1.329
65 195.00 1500.00 137 714 0.740 10000.000 0.000 1.329
66 198.00 1500.00 150 773 0.740 10000.000 0.000 1.329
67 201.00 1500.00 178 782 0.740 10000.000 0.000 1.329
68 204.00 1500.00 167 730 0.740 10000.000 0.000 1.329
69 207.00 1500.00 166 694 0.740 10000.000 0.000 1.329
70 210.00 1500.00 180 753 0.740 10000.000 0.000 1.329
71 213.00 1500.00 176 711 0.740 10000.000 0.000 1.329
72 216.00 1500.00 196 666 0.740 10000.000 0.000 1.329
73 219.00 1500.00 212 596 0.740 10000.000 0.000 1.329
74 222.00 1500.00 234 634 0.740 10000.000 0.000 1.329
75 225.00 1500.00 238 549 0.740 10000.000 0.000 1.329
76 228.00 1500.00 222 580 0.740 10000.000 0.000 1.329
77 231.00 1500.00 226 510 0.740 10000.000 0.000 1.329
78 234.00 1500.00 241 508 0.740 10000.000 0.000 1.329
79 237.00 1500.00 256 452 0.740 10000.000 0.000 1.329
80 240.00 1500.00 228 494 0.740 10000.000 0.000 1.329
81 243.00 1500.00 246 487 0.740 10000.000 0.000 1.329
82 246.00 1500.00 232 449 0.740 10000.000 0.000 1.329
83 249.00 1500.00 211 436 0.740 10000.000 0.000 1.329
84 252.00 1500.00 208 473 0.740 10000.000 0.000 1.329
85 255.00 1500.00 204 485 0.740 10000.000 0.000 1.329
86 258.00 1500.00 200 499 0.740 10000.000 0.000 1.329
87 261.00 1500.00 151 506 0.740 10000.000 0.000 1.329
88 264.00 1500.00 156 555 0.740 10000.000 0.000 1.329
89 267.00 1500.00 165 553 0.740 10000.000 0.000 1.329
90 270.00 1500.00 186 532 0.740 10000.000 0.000 1.329
91 273.00 1500.00 172 591 0.740 10000.000 0.000 1.329
92 276.00 1500.00 176 649 0.740 10000.000 0.000 1.329
93 279.00 1500.00 168 609 0.740 10000.000 0.000 1.329
94 282.00 1500.00 169 639 0.740 10000.000 0.000 1.329
95 285.00 1500.00 170 688 0.740 10000.000 0.000 1.329
96 288.00 1500.00 196 671 0.740 10000.000 0.000 1.329
97 291.00 1500.00 147 695 0.740 10000.000 0.000 1.329
98 294.00 1500.00 192 770 0.740 10000.000 0.000 1.329
99 297.00 1500.00 194 685 0.740 10000.000 0.000 1.329
100 300.00 1500.00 190 763 0.740 10000.000 0.000 1.329
101 303.00 1500.00 167 761 0.740 10000.000 0.000 1.329
102 306.00 1500.00 158 708 0.740 10000.000 0.000 1.329
103 309.00 1500.00 205 679 0.740 10000.000 0.000 1.329
104 312.00 1500.00 190 684 0.740 10000.000 0.000 1.329
105 315.00 1500.00 187 682 0.740 10000.000 0.000 1.329
106 318.00 1500.00 176 662 0.740 10000.000 0.000 1.329
107 321.00 1500.00 160 554 0.740 10000.000 0.000 1.329
108 324.00 1500.00 199 600 0.740 10000.000 0.000 1.329
109 327.00 1500.00 176 572 0.740 10000.000 0.000 1.329
110 330.00 1500.00 176 524 0.740 10000.000 0.000 1.329
111 333.00 1500.00 169 496 0.740 10000.000 0.000 1.329
112 336.00 1500.00 177 482 0.740 10000.000 0.000 1.329
113 339.00 1500.00 171 475 0.740 10000.000 0.000 1.329
114 342.00 1500.00 191 477 0.740 10000.000 0.000 1.329
115 345.00 1500.00 194 430 0.740 10000.000 0.000 1.329
116 348.00 1500.00 185 454 0.740 10000.000 0.000 1.329
117 351.00 1500.00 194 446 0.740 10000.000 0.000 1.329
118 354.00 1500.00 188 412 0.740 10000.000 0.000 1.329
119 357.00 1500.00 217 516 0.740 10000.000 0.000 1.329
120 360.00 1500.00 221 487 0.740 10000.000 0.000 1.329
121 363.00 1500.00 241 559 0.740 10000.000 0.000 1.329
122 366.00 1500.00 222 555 0.740 10000.000 0.000 1.329
123 369.00 1500.00 248 559 0.740 10000.000 0.000 1.329
124 372.00 1500.00 225 656 0.740 10000.000 0.000 1.329
125 375.00 1500.00 249 601 0.740 10000.000 0.000 1.329
126 378.00 1500.00 218 649 0.740 10000.000 0.000 1.329
127 381.00 1500.00 215 650 0.740 10000.000 0.000 1.329
128 384.00 1500.00 224 766 0.740 10000.000 0.000 1.329
129 387.00 1500.00 198 775 0.740 10000.000 0.000 1.329
130 390.00 1500.00 199 698 0.740 10000.000 0.000 1.329
131 393.00 1500.00 200 707 0.740 10000.000 0.000 1.329
132 396.00 1500.00 210 724 0.740 10000.000 0.000 1.329
133 399.00 1500.00 162 684 0.740 10000.000 0.000 1.329
134 402.00 1500.00 182 701 0.740 10000.000 0.000 1.329
135 405.00 1500.00 157 745 0.740 10000.000 0.000 1.329
136 408.00 1500.00 151 706 0.740 10000.000 0.000 1.329
137 411.00 1500.00 165 683 0.740 10000.000 0.000 1.329
138 414.00 1500.00 155 649 0.740 10000.000 0.000 1.329
139 417.00 1500.00 162 674 0.740 10000.000 0.000 1.329
140 420.00 1500.00 153 626 0.740 10000.000 0.000 1.329
141 423.00 1500.00 154 544 0.740 10000.000 0.000 1.329
142 426.00 1500.00 198 583 0.740 10000.000 0.000 1.329
143 429.00 1500.00 159 539 0.740 10000.000 0.000 1.329
144 432.00 1500.00 167 461 0.740 10000.000 0.000 1.329
