# BinNR microsec tot-time (s)  O-Beam AUX Ampl(V) f(Hz) phase(deg) chi(pos)
0 0.00 1500.02 137 240 0.740 10000.000 0.000 0.330
1 3.00 1500.02 281 551 0.740 10000.000 0.000 0.330
2 6.00 1500.02 280 583 0.740 10000.000 0.000 0.330
3 9.00 1500.02 275 557 0.740 10000.000 0.000 0.330
4 12.00 1500.02 276 526 0.740 10000.000 0.000 0.330
5 15.00 1500.02 279 540 0.740 10000.000 0.000 0.330
6 18.00 1500.02 247 497 0.740 10000.000 0.000 0.330
7 21.00 1500.02 223 491 0.740 10000.000 0.000 0.330
8 24.00 1500.02 209 475 0.740 10000.000 0.000 0.330
9 27.00 1500.02 211 446 0.740 10000.000 0.000 0.330
10 30.00 1500.02 204 414 0.740 10000.000 0.000 0.330
11 33.00 1500.02 198 437 0.740 10000.000 0.000 0.330
12 36.00 1500.02 201 412 0.740 10000.000 0.000 0.330
13 39.00 1500.02 231 424 0.740 10000.000 0.000 0.330
14 42.00 1500.02 214 436 0.740 10000.000 0.000 0.330
15 45.00 1500.02 237 441 0.740 10000.000 0.000 0.330
16 48.00 1500.02 206 476 0.740 10000.000 0.000 0.330
17 51.00 1500.02 235 475 0.740 10000.000 0.000 0.330
18 54.00 1500.02 263 569 0.740 10000.000 0.000 0.330
19 57.00 1500.02 260 592 0.740 10000.000 0.000 0.330
20 60.00 1500.02 300 551 0.740 10000.000 0.000 0.330
21 63.00 1500.02 245 526 0.740 10000.000 0.000 0.330
22 66.00 1500.02 294 485 0.740 10000.000 0.000 0.330
23 69.00 1500.02 270 455 0.740 10000.000 0.000 0.330
24 72.00 1500.02 293 461 0.740 10000.000 0.000 0.330
25 75.00 1500.02 287 398 0.740 10000.000 0.000 0.330
26 78.00 1500.02 305 413 0.740 10000.000 0.000 0.330
27 81.00 1500.02 313 330 0.740 10000.000 0.000 0.330
28 84.00 1500.02 288 342 0.740 10000.000 0.000 0.330
29 87.00 1500.02 299 345 0.740 10000.000 0.000 0.330
30 90.00 1500.02 332 315 0.740 10000.000 0.000 0.330
31 93.00 1500.02 297 264 0.740 10000.000 0.000 0.330
32 96.00 1500.02 337 245 0.740 10000.000 0.000 0.330
33 99.00 1500.02 257 276 0.740 10000.000 0.000 0.330
34 102.00 1500.02 278 284 0.740 10000.000 0.000 0.330
35 105.00 1500.02 302 294 0.740 10000.000 0.000 0.330
36 108.00 1500.02 235 338 0.740 10000.000 0.000 0.330
37 111.00 1500.02 252 329 0.740 10000.000 0.000 0.330
38 114.00 1500.02 231 336 0.740 10000.000 0.000 0.330
39 117.00 1500.02 250 369 0.740 10000.000 0.000 0.330
40 120.00 1500.02 211 378 0.740 10000.000 0.000 0.330
41 123.00 1500.02 237 422 0.740 10000.000 0.000 0.330
42 126.00 1500.02 233 420 0.740 10000.000 0.000 0.330
43 129.00 1500.02 217 509 0.740 10000.000 0.000 0.330
44 132.00 1500.02 214 466 0.740 10000.000 0.000 0.330
45 135.00 1500.02 217 552 0.740 10000.000 0.000 0.330
46 138.00 1500.02 234 592 0.740 10000.000 0.000 0.330
47 141.00 1500.02 219 592 0.740 10000.000 0.000 0.330
48 144.00 1500.02 212 609 0.740 10000.000 0.000 0.330
49 147.00 1500.02 219 639 0.740 10000.000 0.000 0.330
50 150.00 1500.02 265 625 0.740 10000.000 0.000 0.330
51 153.00 1500.02 233 607 0.740 10000.000 0.000 0.330
52 156.00 1500.02 266 597 0.740 10000.000 0.000 0.330
53 159.00 1500.02 246 578 0.740 10000.000 0.000 0.330
54 162.00 1500.02 263 523 0.740 10000.000 0.000 0.330
55 165.00 1500.02 248 541 0.740 10000.000 0.000 0.330
56 168.00 1500.02 272 476 0.740 10000.000 0.000 0.330
57 171.00 1500.02 306 439 0.740 10000.000 0.000 0.330
58 174.00 1500.02 291 447 0.740 10000.000 0.000 0.330
59 177.00 1500.02 291 388 0.740 10000.000 0.000 0.330
60 180.00 1500.02 342 339 0.740 10000.000 0.000 0.330
61 183.00 1500.02 295 340 0.740 10000.000 0.000 0.330
62 186.00 1500.02 300 335 0.740 10000.000 0.000 0.330
63 189.00 1500.02 269 287 0.740 10000.000 0.000 0.330
64 192.00 1500.02 290 307 0.740 10000.000 0.000 0.330
65 195.00 1500.02 292 301 0.740 10000.000 0.000 0.330
66 198.00 1500.02 290 303 0.740 10000.000 0.000 0.330
67 201.00 1500.02 292 301 0.740 10000.000 0.000 0.330
68 204.00 1500.02 283 290 0.740 10000.000 0.000 0.330
69 207.00 1500.02 271 307 0.740 10000.000 0.000 0.330
70 210.00 1500.02 249 358 0.740 10000.000 0.000 0.330
71 213.00 1500.02 226 354 0.740 10000.000 0.000 0.330
72 216.00 1500.02 257 382 0.740 10000.000 0.000 0.330
73 219.00 1500.02 240 382 0.740 10000.000 0.000 0.330
74 222.00 1500.02 215 447 0.740 10000.000 0.000 0.330
75 225.00 1500.02 223 480 0.740 10000.000 0.000 0.330
76 228.00 1500.02 245 494 0.740 10000.000 0.000 0.330
77 231.00 1500.02 215 502 0.740 10000.000 0.000 0.330
78 234.00 1500.02 232 571 0.740 10000.000 0.000 0.330
79 237.00 1500.02 217 597 0.740 10000.000 0.000 0.330
80 240.00 1500.02 222 595 0.740 10000.000 0.000 0.330
81 243.00 1500.02 231 573 0.740 10000.000 0.000 0.330
82 246.00 1500.02 232 641 0.740 10000.000 0.000 0.330
83 249.00 1500.02 241 582 0.740 10000.000 0.000 0.330
84 252.00 1500.02 268 595 0.740 10000.000 0.000 0.330
85 255.00 1500.02 246 584 0.740 10000.000 0.000 0.330
86 258.00 1500.02 271 603 0.740 10000.000 0.000 0.330
87 261.00 1500.02 250 589 0.740 10000.000 0.000 0.330
88 264.00 1500.02 298 554 0.740 10000.000 0.000 0.330
89 267.00 1500.02 257 451 0.740 10000.000 0.000 0.330
90 270.00 1500.02 252 479 0.740 10000.000 0.000 0.330
91 273.00 1500.02 286 457 0.740 10000.000 0.000 0.330
92 276.00 1500.02 312 433 0.740 10000.000 0.000 0.330
93 279.00 1500.02 281 385 0.740 10000.000 0.000 0.330
94 282.00 1500.02 250 381 0.740 10000.000 0.000 0.330
95 285.00 1500.02 290 323 0.740 10000.000 0.000 0.330
96 288.00 1500.02 290 288 0.740 10000.000 0.000 0.330
97 291.00 1500.02 251 288 0.740 10000.000 0.000 0.330
98 294.00 1500.02 305 273 0.740 10000.000 0.000 0.330
99 297.00 1500.02 283 270 0.740 10000.000 0.000 0.330
100 300.00 1500.02 275 276 0.740 10000.000 0.000 0.330
101 303.00 1500.02 285 296 0.740 10000.000 0.000 0.330
102 306.00 1500.02 254 289 0.740 10000.000 0.000 0.330
103 309.00 1500.02 266 319 0.740 10000.000 0.000 0.330
104 312.00 1500.02 275 380 0.740 10000.000 0.000 0.330
105 315.00 1500.02 285 354 0.740 10000.000 0.000 0.330
106 318.00 1500.02 273 387 0.740 10000.000 0.000 0.330
107 321.00 1500.02 295 417 0.740 10000.000 0.000 0.330
108 324.00 1500.02 281 484 0.740 10000.000 0.000 0.330
109 327.00 1500.02 275 436 0.740 10000.000 0.000 0.330
110 330.00 1500.02 299 500 0.740 10000.000 0.000 0.330
111 333.00 1500.02 291 548 0.740 10000.000 0.000 0.330
112 336.00 1500.02 289 604 0.740 10000.000 0.000 0.330
113 339.00 1500.02 265 528 0.740 10000.000 0.000 0.330
114 342.00 1500.02 246 650 0.740 10000.000 0.000 0.330
115 345.00 1500.02 258 590 0.740 10000.000 0.000 0.330
116 348.00 1500.02 248 602 0.740 10000.000 0.000 0.330
117 351.00 1500.02 236 638 0.740 10000.000 0.000 0.330
118 354.00 1500.02 240 615 0.740 10000.000 0.000 0.330
119 357.00 1500.02 204 611 0.740 10000.000 0.000 0.330
120 360.00 1500.02 212 573 0.740 10000.000 0.000 0.330
121 363.00 1500.02 231 537 0.740 10000.000 0.000 0.330
122 366.00 1500.02 232 507 0.740 10000.000 0.000 0.330
123 369.00 1500.02 189 438 0.740 10000.000 0.000 0.330
124 372.00 1500.02 200 483 0.740 10000.000 0.000 0.330
125 375.00 1500.02 200 421 0.740 10000.000 0.000 0.330
126 378.00 1500.02 231 354 0.740 10000.000 0.000 0.330
127 381.00 1500.02 257 369 0.740 10000.000 0.000 0.330
128 384.00 1500.02 266 360 0.740 10000.000 0.000 0.330
129 387.00 1500.02 232 299 0.740 10000.000 0.000 0.330
130 390.00 1500.02 214 280 0.740 10000.000 0.000 0.330
131 393.00 1500.02 274 282 0.740 10000.000 0.000 0.330
132 396.00 1500.02 278 290 0.740 10000.000 0.000 0.330
133 399.00 1500.02 273 306 0.740 10000.000 0.000 0.330
134 402.00 1500.02 317 276 0.740 10000.000 0.000 0.330
135 405.00 1500.02 305 302 0.740 10000.000 0.000 0.330
136 408.00 1500.02 317 303 0.740 10000.000 0.000 0.330
137 411.00 1500.02 290 340 0.740 10000.000 0.000 0.330
138 414.00 1500.02 274 355 0.740 10000.000 0.000 0.330
139 417.00 1500.02 298 345 0.740 10000.000 0.000 0.330
140 420.00 1500.02 284 408 0.740 10000.000 0.000 0.330
141 423.00 1500.02 277 420 0.740 10000.000 0.000 0.330
142 426.00 1500.02 325 478 0.740 10000.000 0.000 0.330
143 429.00 1500.02 295 477 0.740 10000.000 0.000 0.330
144 432.00 1500.02 329 527 0.740 10000.000 0.000 0.330
