# BinNR microsec tot-time (s)  O-Beam AUX Ampl(V) f(Hz) phase(deg) chi(pos)
0 0.00 1500.01 52 112 0.740 10000.000 0.000 1.000
1 3.00 1500.01 113 221 0.740 10000.000 0.000 1.000
2 6.00 1500.01 117 216 0.740 10000.000 0.000 1.000
3 9.00 1500.01 117 216 0.740 10000.000 0.000 1.000
4 12.00 1500.01 114 240 0.740 10000.000 0.000 1.000
5 15.00 1500.01 138 234 0.740 10000.000 0.000 1.000
6 18.00 1500.01 131 243 0.740 10000.000 0.000 1.000
7 21.00 1500.01 142 288 0.740 10000.000 0.000 1.000
8 24.00 1500.01 140 312 0.740 10000.000 0.000 1.000
9 27.00 1500.01 127 296 0.740 10000.000 0.000 1.000
10 30.00 1500.01 140 296 0.740 10000.000 0.000 1.000
11 33.00 1500.01 173 343 0.740 10000.000 0.000 1.000
12 36.00 1500.01 130 351 0.740 10000.000 0.000 1.000
13 39.00 1500.01 135 304 0.740 10000.000 0.000 1.000
14 42.00 1500.01 141 296 0.740 10000.000 0.000 1.000
15 45.00 1500.01 139 272 0.740 10000.000 0.000 1.000
16 48.00 1500.01 149 277 0.740 10000.000 0.000 1.000
17 51.00 1500.01 128 274 0.740 10000.000 0.000 1.000
18 54.00 1500.01 121 242 0.740 10000.000 0.000 1.000
19 57.00 1500.01 121 254 0.740 10000.000 0.000 1.000
20 60.00 1500.01 124 235 0.740 10000.000 0.000 1.000
21 63.00 1500.01 104 217 0.740 10000.000 0.000 1.000
22 66.00 1500.01 105 279 0.740 10000.000 0.000 1.000
23 69.00 1500.01 102 270 0.740 10000.000 0.000 1.000
24 72.00 1500.01 99 302 0.740 10000.000 0.000 1.000
25 75.00 1500.01 91 337 0.740 10000.000 0.000 1.000
26 78.00 1500.01 98 361 0.740 10000.000 0.000 1.000
27 81.00 1500.01 97 402 0.740 10000.000 0.000 1.000
28 84.00 1500.01 103 442 0.740 10000.000 0.000 1.000
29 87.00 1500.01 95 424 0.740 10000.000 0.000 1.000
30 90.00 1500.01 88 474 0.740 10000.000 0.000 1.000
31 93.00 1500.01 93 449 0.740 10000.000 0.000 1.000
32 96.00 1500.01 106 481 0.740 10000.000 0.000 1.000
33 99.00 1500.01 97 492 0.740 10000.000 0.000 1.000
34 102.00 1500.01 122 492 0.740 10000.000 0.000 1.000
35 105.00 1500.01 108 468 0.740 10000.000 0.000 1.000
36 108.00 1500.01 117 474 0.740 10000.000 0.000 1.000
37 111.00 1500.01 139 424 0.740 10000.000 0.000 1.000
38 114.00 1500.01 101 386 0.740 10000.000 0.000 1.000
39 117.00 1500.01 126 365 0.740 10000.000 0.000 1.000
40 120.00 1500.01 121 306 0.740 10000.000 0.000 1.000
41 123.00 1500.01 139 302 0.740 10000.000 0.000 1.000
42 126.00 1500.01 133 291 0.740 10000.000 0.000 1.000
43 129.00 1500.01 146 288 0.740 10000.000 0.000 1.000
44 132.00 1500.01 126 276 0.740 10000.000 0.000 1.000
45 135.00 1500.01 142 235 0.740 10000.000 0.000 1.000
46 138.00 1500.01 127 239 0.740 10000.000 0.000 1.000
47 141.00 1500.01 141 197 0.740 10000.000 0.000 1.000
48 144.00 1500.01 122 190 0.740 10000.000 0.000 1.000
49 147.00 1500.01 125 215 0.740 10000.000 0.000 1.000
50 150.00 1500.01 129 213 0.740 10000.000 0.000 1.000
51 153.00 1500.01 126 225 0.740 10000.000 0.000 1.000
52 156.00 1500.01 127 221 0.740 10000.000 0.000 1.000
53 159.00 1500.01 90 228 0.740 10000.000 0.000 1.000
54 162.00 1500.01 102 212 0.740 10000.000 0.000 1.000
55 165.00 1500.01 102 235 0.740 10000.000 0.000 1.000
56 168.00 1500.01 116 293 0.740 10000.000 0.000 1.000
57 171.00 1500.01 103 345 0.740 10000.000 0.000 1.000
58 174.00 1500.01 112 345 0.740 10000.000 0.000 1.000
59 177.00 1500.01 95 357 0.740 10000.000 0.000 1.000
60 180.00 1500.01 107 390 0.740 10000.000 0.000 1.000
61 183.00 1500.01 93 378 0.740 10000.000 0.000 1.000
62 186.00 1500.01 97 447 0.740 10000.000 0.000 1.000
63 189.00 1500.01 92 442 0.740 10000.000 0.000 1.000
64 192.00 1500.01 99 541 0.740 10000.000 0.000 1.000
65 195.00 1500.01 87 494 0.740 10000.000 0.000 1.000
66 198.00 1500.01 108 482 0.740 10000.000 0.000 1.000
67 201.00 1500.01 98 498 0.740 10000.000 0.000 1.000
68 204.00 1500.01 107 434 0.740 10000.000 0.000 1.000
69 207.00 1500.01 104 447 0.740 10000.000 0.000 1.000
70 210.00 1500.01 120 399 0.740 10000.000 0.000 1.000
71 213.00 1500.01 127 388 0.740 10000.000 0.000 1.000
72 216.00 1500.01 124 374 0.740 10000.000 0.000 1.000
73 219.00 1500.01 125 354 0.740 10000.000 0.000 1.000
74 222.00 1500.01 130 330 0.740 10000.000 0.000 1.000
75 225.00 1500.01 124 294 0.740 10000.000 0.000 1.000
76 228.00 1500.01 131 287 0.740 10000.000 0.000 1.000
77 231.00 1500.01 121 236 0.740 10000.000 0.000 1.000
78 234.00 1500.01 143 226 0.740 10000.000 0.000 1.000
79 237.00 1500.01 164 201 0.740 10000.000 0.000 1.000
80 240.00 1500.01 131 211 0.740 10000.000 0.000 1.000
81 243.00 1500.01 158 220 0.740 10000.000 0.000 1.000
82 246.00 1500.01 147 182 0.740 10000.000 0.000 1.000
83 249.00 1500.01 121 194 0.740 10000.000 0.000 1.000
84 252.00 1500.01 132 200 0.740 10000.000 0.000 1.000
85 255.00 1500.01 153 211 0.740 10000.000 0.000 1.000
86 258.00 1500.01 124 246 0.740 10000.000 0.000 1.000
87 261.00 1500.01 95 249 0.740 10000.000 0.000 1.000
88 264.00 1500.01 106 269 0.740 10000.000 0.000 1.000
89 267.00 1500.01 95 235 0.740 10000.000 0.000 1.000
90 270.00 1500.01 100 275 0.740 10000.000 0.000 1.000
91 273.00 1500.01 115 323 0.740 10000.000 0.000 1.000
92 276.00 1500.01 105 342 0.740 10000.000 0.000 1.000
93 279.00 1500.01 101 369 0.740 10000.000 0.000 1.000
94 282.00 1500.01 109 388 0.740 10000.000 0.000 1.000
95 285.00 1500.01 123 425 0.740 10000.000 0.000 1.000
96 288.00 1500.01 110 484 0.740 10000.000 0.000 1.000
97 291.00 1500.01 132 484 0.740 10000.000 0.000 1.000
98 294.00 1500.01 111 472 0.740 10000.000 0.000 1.000
99 297.00 1500.01 118 451 0.740 10000.000 0.000 1.000
100 300.00 1500.01 142 461 0.740 10000.000 0.000 1.000
101 303.00 1500.01 124 497 0.740 10000.000 0.000 1.000
102 306.00 1500.01 127 478 0.740 10000.000 0.000 1.000
103 309.00 1500.01 95 455 0.740 10000.000 0.000 1.000
104 312.00 1500.01 112 421 0.740 10000.000 0.000 1.000
105 315.00 1500.01 118 394 0.740 10000.000 0.000 1.000
106 318.00 1500.01 114 385 0.740 10000.000 0.000 1.000
107 321.00 1500.01 116 334 0.740 10000.000 0.000 1.000
108 324.00 1500.01 112 303 0.740 10000.000 0.000 1.000
109 327.00 1500.01 101 276 0.740 10000.000 0.000 1.000
110 330.00 1500.01 106 308 0.740 10000.000 0.000 1.000
111 333.00 1500.01 100 240 0.740 10000.000 0.000 1.000
112 336.00 1500.01 108 222 0.740 10000.000 0.000 1.000
113 339.00 1500.01 121 197 0.740 10000.000 0.000 1.000
114 342.00 1500.01 127 222 0.740 10000.000 0.000 1.000
115 345.00 1500.01 124 200 0.740 10000.000 0.000 1.000
116 348.00 1500.01 137 177 0.740 10000.000 0.000 1.000
117 351.00 1500.01 122 198 0.740 10000.000 0.000 1.000
118 354.00 1500.01 126 197 0.740 10000.000 0.000 1.000
119 357.00 1500.01 143 202 0.740 10000.000 0.000 1.000
120 360.00 1500.01 142 222 0.740 10000.000 0.000 1.000
121 363.00 1500.01 138 242 0.740 10000.000 0.000 1.000
122 366.00 1500.01 138 244 0.740 10000.000 0.000 1.000
123 369.00 1500.01 152 285 0.740 10000.000 0.000 1.000
124 372.00 1500.01 151 311 0.740 10000.000 0.000 1.000
125 375.00 1500.01 148 332 0.740 10000.000 0.000 1.000
126 378.00 1500.01 147 380 0.740 10000.000 0.000 1.000
127 381.00 1500.01 136 427 0.740 10000.000 0.000 1.000
128 384.00 1500.01 124 420 0.740 10000.000 0.000 1.000
129 387.00 1500.01 125 443 0.740 10000.000 0.000 1.000
130 390.00 1500.01 106 450 0.740 10000.000 0.000 1.000
131 393.00 1500.01 124 448 0.740 10000.000 0.000 1.000
132 396.00 1500.01 108 503 0.740 10000.000 0.000 1.000
133 399.00 1500.01 127 485 0.740 10000.000 0.000 1.000
134 402.00 1500.01 111 500 0.740 10000.000 0.000 1.000
135 405.00 1500.01 90 418 0.740 10000.000 0.000 1.000
136 408.00 1500.01 124 449 0.740 10000.000 0.000 1.000
137 411.00 1500.01 102 435 0.740 10000.000 0.000 1.000
138 414.00 1500.01 103 387 0.740 10000.000 0.000 1.000
139 417.00 1500.01 110 377 0.740 10000.000 0.000 1.000
140 420.00 1500.01 106 379 0.740 10000.000 0.000 1.000
141 423.00 1500.01 94 299 0.740 10000.000 0.000 1.000
142 426.00 1500.01 112 299 0.740 10000.000 0.000 1.000
143 429.00 1500.01 105 268 0.740 10000.000 0.000 1.000
144 432.00 1500.01 107 253 0.740 10000.000 0.000 1.000
