# BinNR microsec tot-time (s)  O-Beam AUX Ampl(V) f(Hz) phase(deg) chi(pos)
0 0.00 1500.00 92 147 0.740 10000.000 0.000 0.516
1 3.00 1500.00 192 343 0.740 10000.000 0.000 0.516
2 6.00 1500.00 190 313 0.740 10000.000 0.000 0.516
3 9.00 1500.00 199 307 0.740 10000.000 0.000 0.516
4 12.00 1500.00 183 290 0.740 10000.000 0.000 0.516
5 15.00 1500.00 195 271 0.740 10000.000 0.000 0.516
6 18.00 1500.00 170 263 0.740 10000.000 0.000 0.516
7 21.00 1500.00 151 256 0.740 10000.000 0.000 0.516
8 24.00 1500.00 143 248 0.740 10000.000 0.000 0.516
9 27.00 1500.00 167 227 0.740 10000.000 0.000 0.516
10 30.00 1500.00 127 219 0.740 10000.000 0.000 0.516
11 33.00 1500.00 157 189 0.740 10000.000 0.000 0.516
12 36.00 1500.00 123 209 0.740 10000.000 0.000 0.516
13 39.00 1500.00 162 186 0.740 10000.000 0.000 0.516
14 42.00 1500.00 136 234 0.740 10000.000 0.000 0.516
15 45.00 1500.00 187 247 0.740 10000.000 0.000 0.516
16 48.00 1500.00 145 270 0.740 10000.000 0.000 0.516
17 51.00 1500.00 164 304 0.740 10000.000 0.000 0.516
18 54.00 1500.00 140 274 0.740 10000.000 0.000 0.516
19 57.00 1500.00 191 301 0.740 10000.000 0.000 0.516
20 60.00 1500.00 169 293 0.740 10000.000 0.000 0.516
21 63.00 1500.00 207 250 0.740 10000.000 0.000 0.516
22 66.00 1500.00 199 271 0.740 10000.000 0.000 0.516
23 69.00 1500.00 198 220 0.740 10000.000 0.000 0.516
24 72.00 1500.00 202 230 0.740 10000.000 0.000 0.516
25 75.00 1500.00 204 191 0.740 10000.000 0.000 0.516
26 78.00 1500.00 219 195 0.740 10000.000 0.000 0.516
27 81.00 1500.00 223 192 0.740 10000.000 0.000 0.516
28 84.00 1500.00 210 154 0.740 10000.000 0.000 0.516
29 87.00 1500.00 229 177 0.740 10000.000 0.000 0.516
30 90.00 1500.00 231 158 0.740 10000.000 0.000 0.516
31 93.00 1500.00 218 141 0.740 10000.000 0.000 0.516
32 96.00 1500.00 218 125 0.740 10000.000 0.000 0.516
33 99.00 1500.00 197 139 0.740 10000.000 0.000 0.516
34 102.00 1500.00 213 156 0.740 10000.000 0.000 0.516
35 105.00 1500.00 197 161 0.740 10000.000 0.000 0.516
36 108.00 1500.00 165 153 0.740 10000.000 0.000 0.516
37 111.00 1500.00 187 148 0.740 10000.000 0.000 0.516
38 114.00 1500.00 163 177 0.740 10000.000 0.000 0.516
39 117.00 1500.00 143 172 0.740 10000.000 0.000 0.516
40 120.00 1500.00 138 217 0.740 10000.000 0.000 0.516
41 123.00 1500.00 142 223 0.740 10000.000 0.000 0.516
42 126.00 1500.00 169 227 0.740 10000.000 0.000 0.516
43 129.00 1500.00 125 226 0.740 10000.000 0.000 0.516
44 132.00 1500.00 127 278 0.740 10000.000 0.000 0.516
45 135.00 1500.00 135 291 0.740 10000.000 0.000 0.516
46 138.00 1500.00 137 342 0.740 10000.000 0.000 0.516
47 141.00 1500.00 131 308 0.740 10000.000 0.000 0.516
48 144.00 1500.00 138 340 0.740 10000.000 0.000 0.516
49 147.00 1500.00 142 375 0.740 10000.000 0.000 0.516
50 150.00 1500.00 174 336 0.740 10000.000 0.000 0.516
51 153.00 1500.00 146 315 0.740 10000.000 0.000 0.516
52 156.00 1500.00 167 326 0.740 10000.000 0.000 0.516
53 159.00 1500.00 176 308 0.740 10000.000 0.000 0.516
54 162.00 1500.00 153 286 0.740 10000.000 0.000 0.516
55 165.00 1500.00 184 268 0.740 10000.000 0.000 0.516
56 168.00 1500.00 195 261 0.740 10000.000 0.000 0.516
57 171.00 1500.00 186 189 0.740 10000.000 0.000 0.516
58 174.00 1500.00 199 194 0.740 10000.000 0.000 0.516
59 177.00 1500.00 229 198 0.740 10000.000 0.000 0.516
60 180.00 1500.00 197 146 0.740 10000.000 0.000 0.516
61 183.00 1500.00 206 145 0.740 10000.000 0.000 0.516
62 186.00 1500.00 231 167 0.740 10000.000 0.000 0.516
63 189.00 1500.00 223 154 0.740 10000.000 0.000 0.516
64 192.00 1500.00 237 166 0.740 10000.000 0.000 0.516
65 195.00 1500.00 190 161 0.740 10000.000 0.000 0.516
66 198.00 1500.00 222 143 0.740 10000.000 0.000 0.516
67 201.00 1500.00 190 147 0.740 10000.000 0.000 0.516
68 204.00 1500.00 166 135 0.740 10000.000 0.000 0.516
69 207.00 1500.00 201 145 0.740 10000.000 0.000 0.516
70 210.00 1500.00 160 158 0.740 10000.000 0.000 0.516
71 213.00 1500.00 171 174 0.740 10000.000 0.000 0.516
72 216.00 1500.00 168 169 0.740 10000.000 0.000 0.516
73 219.00 1500.00 164 202 0.740 10000.000 0.000 0.516
74 222.00 1500.00 152 201 0.740 10000.000 0.000 0.516
75 225.00 1500.00 151 206 0.740 10000.000 0.000 0.516
76 228.00 1500.00 145 261 0.740 10000.000 0.000 0.516
77 231.00 1500.00 141 282 0.740 10000.000 0.000 0.516
78 234.00 1500.00 143 290 0.740 10000.000 0.000 0.516
79 237.00 1500.00 133 311 0.740 10000.000 0.000 0.516
80 240.00 1500.00 127 339 0.740 10000.000 0.000 0.516
81 243.00 1500.00 131 326 0.740 10000.000 0.000 0.516
82 246.00 1500.00 148 332 0.740 10000.000 0.000 0.516
83 249.00 1500.00 141 344 0.740 10000.000 0.000 0.516
84 252.00 1500.00 158 321 0.740 10000.000 0.000 0.516
85 255.00 1500.00 149 345 0.740 10000.000 0.000 0.516
86 258.00 1500.00 184 351 0.740 10000.000 0.000 0.516
87 261.00 1500.00 178 298 0.740 10000.000 0.000 0.516
88 264.00 1500.00 189 287 0.740 10000.000 0.000 0.516
89 267.00 1500.00 190 246 0.740 10000.000 0.000 0.516
90 270.00 1500.00 203 264 0.740 10000.000 0.000 0.516
91 273.00 1500.00 193 200 0.740 10000.000 0.000 0.516
92 276.00 1500.00 210 203 0.740 10000.000 0.000 0.516
93 279.00 1500.00 207 174 0.740 10000.000 0.000 0.516
94 282.00 1500.00 192 177 0.740 10000.000 0.000 0.516
95 285.00 1500.00 208 146 0.740 10000.000 0.000 0.516
96 288.00 1500.00 202 148 0.740 10000.000 0.000 0.516
97 291.00 1500.00 188 142 0.740 10000.000 0.000 0.516
98 294.00 1500.00 187 133 0.740 10000.000 0.000 0.516
99 297.00 1500.00 156 114 0.740 10000.000 0.000 0.516
100 300.00 1500.00 182 127 0.740 10000.000 0.000 0.516
101 303.00 1500.00 176 149 0.740 10000.000 0.000 0.516
102 306.00 1500.00 186 140 0.740 10000.000 0.000 0.516
103 309.00 1500.00 175 185 0.740 10000.000 0.000 0.516
104 312.00 1500.00 188 187 0.740 10000.000 0.000 0.516
105 315.00 1500.00 189 164 0.740 10000.000 0.000 0.516
106 318.00 1500.00 193 180 0.740 10000.000 0.000 0.516
107 321.00 1500.00 217 167 0.740 10000.000 0.000 0.516
108 324.00 1500.00 212 225 0.740 10000.000 0.000 0.516
109 327.00 1500.00 181 256 0.740 10000.000 0.000 0.516
110 330.00 1500.00 204 259 0.740 10000.000 0.000 0.516
111 333.00 1500.00 206 307 0.740 10000.000 0.000 0.516
112 336.00 1500.00 236 289 0.740 10000.000 0.000 0.516
113 339.00 1500.00 184 302 0.740 10000.000 0.000 0.516
114 342.00 1500.00 201 326 0.740 10000.000 0.000 0.516
115 345.00 1500.00 195 317 0.740 10000.000 0.000 0.516
116 348.00 1500.00 203 358 0.740 10000.000 0.000 0.516
117 351.00 1500.00 143 313 0.740 10000.000 0.000 0.516
118 354.00 1500.00 151 313 0.740 10000.000 0.000 0.516
119 357.00 1500.00 128 312 0.740 10000.000 0.000 0.516
120 360.00 1500.00 148 317 0.740 10000.000 0.000 0.516
121 363.00 1500.00 167 237 0.740 10000.000 0.000 0.516
122 366.00 1500.00 167 271 0.740 10000.000 0.000 0.516
123 369.00 1500.00 152 234 0.740 10000.000 0.000 0.516
124 372.00 1500.00 150 214 0.740 10000.000 0.000 0.516
125 375.00 1500.00 129 190 0.740 10000.000 0.000 0.516
126 378.00 1500.00 140 168 0.740 10000.000 0.000 0.516
127 381.00 1500.00 146 165 0.740 10000.000 0.000 0.516
128 384.00 1500.00 153 161 0.740 10000.000 0.000 0.516
129 387.00 1500.00 165 154 0.740 10000.000 0.000 0.516
130 390.00 1500.00 169 174 0.740 10000.000 0.000 0.516
131 393.00 1500.00 151 144 0.740 10000.000 0.000 0.516
132 396.00 1500.00 165 122 0.740 10000.000 0.000 0.516
133 399.00 1500.00 205 155 0.740 10000.000 0.000 0.516
134 402.00 1500.00 183 145 0.740 10000.000 0.000 0.516
135 405.00 1500.00 210 163 0.740 10000.000 0.000 0.516
136 408.00 1500.00 215 142 0.740 10000.000 0.000 0.516
137 411.00 1500.00 228 159 0.740 10000.000 0.000 0.516
138 414.00 1500.00 219 162 0.740 10000.000 0.000 0.516
139 417.00 1500.00 231 189 0.740 10000.000 0.000 0.516
140 420.00 1500.00 199 170 0.740 10000.000 0.000 0.516
141 423.00 1500.00 223 242 0.740 10000.000 0.000 0.516
142 426.00 1500.00 210 230 0.740 10000.000 0.000 0.516
143 429.00 1500.00 249 247 0.740 10000.000 0.000 0.516
144 432.00 1500.00 194 271 0.740 10000.000 0.000 0.516
