# BinNR microsec tot-time (s)  O-Beam AUX Ampl(V) f(Hz) phase(deg) chi(pos)
0 0.00 35132.76 121 250 0.740 10000.000 0.000 1.165
1 3.00 35132.76 249 424 0.740 10000.000 0.000 1.165
2 6.00 35132.76 222 403 0.740 10000.000 0.000 1.165
3 9.00 35132.76 237 461 0.740 10000.000 0.000 1.165
4 12.00 35132.76 271 478 0.740 10000.000 0.000 1.165
5 15.00 35132.76 291 524 0.740 10000.000 0.000 1.165
6 18.00 35132.76 286 520 0.740 10000.000 0.000 1.165
7 21.00 35132.76 320 544 0.740 10000.000 0.000 1.165
8 24.00 35132.76 317 557 0.740 10000.000 0.000 1.165
9 27.00 35132.76 362 545 0.740 10000.000 0.000 1.165
10 30.00 35132.76 347 584 0.740 10000.000 0.000 1.165
11 33.00 35132.76 327 607 0.740 10000.000 0.000 1.165
12 36.00 35132.76 365 590 0.740 10000.000 0.000 1.165
13 39.00 35132.76 302 556 0.740 10000.000 0.000 1.165
14 42.00 35132.76 351 595 0.740 10000.000 0.000 1.165
15 45.00 35132.76 291 548 0.740 10000.000 0.000 1.165
16 48.00 35132.76 312 533 0.740 10000.000 0.000 1.165
17 51.00 35132.76 281 518 0.740 10000.000 0.000 1.165
18 54.00 35132.76 283 534 0.740 10000.000 0.000 1.165
19 57.00 35132.76 259 470 0.740 10000.000 0.000 1.165
20 60.00 35132.76 266 490 0.740 10000.000 0.000 1.165
21 63.00 35132.76 222 481 0.740 10000.000 0.000 1.165
22 66.00 35132.76 269 522 0.740 10000.000 0.000 1.165
23 69.00 35132.76 225 535 0.740 10000.000 0.000 1.165
24 72.00 35132.76 204 522 0.740 10000.000 0.000 1.165
25 75.00 35132.76 200 584 0.740 10000.000 0.000 1.165
26 78.00 35132.76 193 660 0.740 10000.000 0.000 1.165
27 81.00 35132.76 216 726 0.740 10000.000 0.000 1.165
28 84.00 35132.76 220 732 0.740 10000.000 0.000 1.165
29 87.00 35132.76 213 726 0.740 10000.000 0.000 1.165
30 90.00 35132.76 226 749 0.740 10000.000 0.000 1.165
31 93.00 35132.76 203 731 0.740 10000.000 0.000 1.165
32 96.00 35132.76 247 759 0.740 10000.000 0.000 1.165
33 99.00 35132.76 215 724 0.740 10000.000 0.000 1.165
34 102.00 35132.76 255 779 0.740 10000.000 0.000 1.165
35 105.00 35132.76 254 770 0.740 10000.000 0.000 1.165
36 108.00 35132.76 265 730 0.740 10000.000 0.000 1.165
37 111.00 35132.76 260 673 0.740 10000.000 0.000 1.165
38 114.00 35132.76 290 707 0.740 10000.000 0.000 1.165
39 117.00 35132.76 310 625 0.740 10000.000 0.000 1.165
40 120.00 35132.76 344 634 0.740 10000.000 0.000 1.165
41 123.00 35132.76 296 568 0.740 10000.000 0.000 1.165
42 126.00 35132.76 319 572 0.740 10000.000 0.000 1.165
43 129.00 35132.76 319 502 0.740 10000.000 0.000 1.165
44 132.00 35132.76 326 508 0.740 10000.000 0.000 1.165
45 135.00 35132.76 312 458 0.740 10000.000 0.000 1.165
46 138.00 35132.76 337 449 0.740 10000.000 0.000 1.165
47 141.00 35132.76 300 455 0.740 10000.000 0.000 1.165
48 144.00 35132.76 316 451 0.740 10000.000 0.000 1.165
49 147.00 35132.76 300 406 0.740 10000.000 0.000 1.165
50 150.00 35132.76 309 436 0.740 10000.000 0.000 1.165
51 153.00 35132.76 305 410 0.740 10000.000 0.000 1.165
52 156.00 35132.76 282 457 0.740 10000.000 0.000 1.165
53 159.00 35132.76 258 450 0.740 10000.000 0.000 1.165
54 162.00 35132.76 269 434 0.740 10000.000 0.000 1.165
55 165.00 35132.76 239 476 0.740 10000.000 0.000 1.165
56 168.00 35132.76 234 572 0.740 10000.000 0.000 1.165
57 171.00 35132.76 212 516 0.740 10000.000 0.000 1.165
58 174.00 35132.76 211 610 0.740 10000.000 0.000 1.165
59 177.00 35132.76 217 648 0.740 10000.000 0.000 1.165
60 180.00 35132.76 203 666 0.740 10000.000 0.000 1.165
61 183.00 35132.76 208 649 0.740 10000.000 0.000 1.165
62 186.00 35132.76 178 761 0.740 10000.000 0.000 1.165
63 189.00 35132.76 229 753 0.740 10000.000 0.000 1.165
64 192.00 35132.76 220 773 0.740 10000.000 0.000 1.165
65 195.00 35132.76 243 832 0.740 10000.000 0.000 1.165
66 198.00 35132.76 234 804 0.740 10000.000 0.000 1.165
67 201.00 35132.76 226 770 0.740 10000.000 0.000 1.165
68 204.00 35132.76 238 747 0.740 10000.000 0.000 1.165
69 207.00 35132.76 275 714 0.740 10000.000 0.000 1.165
70 210.00 35132.76 282 741 0.740 10000.000 0.000 1.165
71 213.00 35132.76 286 680 0.740 10000.000 0.000 1.165
72 216.00 35132.76 308 656 0.740 10000.000 0.000 1.165
73 219.00 35132.76 341 641 0.740 10000.000 0.000 1.165
74 222.00 35132.76 292 524 0.740 10000.000 0.000 1.165
75 225.00 35132.76 319 594 0.740 10000.000 0.000 1.165
76 228.00 35132.76 358 533 0.740 10000.000 0.000 1.165
77 231.00 35132.76 339 536 0.740 10000.000 0.000 1.165
78 234.00 35132.76 361 472 0.740 10000.000 0.000 1.165
79 237.00 35132.76 305 453 0.740 10000.000 0.000 1.165
80 240.00 35132.76 318 468 0.740 10000.000 0.000 1.165
81 243.00 35132.76 317 397 0.740 10000.000 0.000 1.165
82 246.00 35132.76 317 426 0.740 10000.000 0.000 1.165
83 249.00 35132.76 298 445 0.740 10000.000 0.000 1.165
84 252.00 35132.76 323 422 0.740 10000.000 0.000 1.165
85 255.00 35132.76 279 388 0.740 10000.000 0.000 1.165
86 258.00 35132.76 265 441 0.740 10000.000 0.000 1.165
87 261.00 35132.76 281 499 0.740 10000.000 0.000 1.165
88 264.00 35132.76 242 481 0.740 10000.000 0.000 1.165
89 267.00 35132.76 234 573 0.740 10000.000 0.000 1.165
90 270.00 35132.76 237 585 0.740 10000.000 0.000 1.165
91 273.00 35132.76 249 603 0.740 10000.000 0.000 1.165
92 276.00 35132.76 231 637 0.740 10000.000 0.000 1.165
93 279.00 35132.76 223 690 0.740 10000.000 0.000 1.165
94 282.00 35132.76 233 707 0.740 10000.000 0.000 1.165
95 285.00 35132.76 232 694 0.740 10000.000 0.000 1.165
96 288.00 35132.76 239 743 0.740 10000.000 0.000 1.165
97 291.00 35132.76 232 765 0.740 10000.000 0.000 1.165
98 294.00 35132.76 272 737 0.740 10000.000 0.000 1.165
99 297.00 35132.76 276 814 0.740 10000.000 0.000 1.165
100 300.00 35132.76 252 838 0.740 10000.000 0.000 1.165
101 303.00 35132.76 243 800 0.740 10000.000 0.000 1.165
102 306.00 35132.76 252 755 0.740 10000.000 0.000 1.165
103 309.00 35132.76 248 691 0.740 10000.000 0.000 1.165
104 312.00 35132.76 265 705 0.740 10000.000 0.000 1.165
105 315.00 35132.76 230 676 0.740 10000.000 0.000 1.165
106 318.00 35132.76 269 646 0.740 10000.000 0.000 1.165
107 321.00 35132.76 229 583 0.740 10000.000 0.000 1.165
108 324.00 35132.76 238 561 0.740 10000.000 0.000 1.165
109 327.00 35132.76 215 516 0.740 10000.000 0.000 1.165
110 330.00 35132.76 228 507 0.740 10000.000 0.000 1.165
111 333.00 35132.76 235 451 0.740 10000.000 0.000 1.165
112 336.00 35132.76 235 475 0.740 10000.000 0.000 1.165
113 339.00 35132.76 236 393 0.740 10000.000 0.000 1.165
114 342.00 35132.76 270 419 0.740 10000.000 0.000 1.165
115 345.00 35132.76 265 417 0.740 10000.000 0.000 1.165
116 348.00 35132.76 272 447 0.740 10000.000 0.000 1.165
117 351.00 35132.76 275 430 0.740 10000.000 0.000 1.165
118 354.00 35132.76 300 420 0.740 10000.000 0.000 1.165
119 357.00 35132.76 302 404 0.740 10000.000 0.000 1.165
120 360.00 35132.76 291 462 0.740 10000.000 0.000 1.165
121 363.00 35132.76 326 448 0.740 10000.000 0.000 1.165
122 366.00 35132.76 340 527 0.740 10000.000 0.000 1.165
123 369.00 35132.76 312 500 0.740 10000.000 0.000 1.165
124 372.00 35132.76 307 620 0.740 10000.000 0.000 1.165
125 375.00 35132.76 327 606 0.740 10000.000 0.000 1.165
126 378.00 35132.76 326 665 0.740 10000.000 0.000 1.165
127 381.00 35132.76 281 680 0.740 10000.000 0.000 1.165
128 384.00 35132.76 308 734 0.740 10000.000 0.000 1.165
129 387.00 35132.76 290 726 0.740 10000.000 0.000 1.165
130 390.00 35132.76 276 813 0.740 10000.000 0.000 1.165
131 393.00 35132.76 271 761 0.740 10000.000 0.000 1.165
132 396.00 35132.76 232 798 0.740 10000.000 0.000 1.165
133 399.00 35132.76 300 756 0.740 10000.000 0.000 1.165
134 402.00 35132.76 257 752 0.740 10000.000 0.000 1.165
135 405.00 35132.76 236 758 0.740 10000.000 0.000 1.165
136 408.00 35132.76 226 760 0.740 10000.000 0.000 1.165
137 411.00 35132.76 200 686 0.740 10000.000 0.000 1.165
138 414.00 35132.76 217 706 0.740 10000.000 0.000 1.165
139 417.00 35132.76 219 644 0.740 10000.000 0.000 1.165
140 420.00 35132.76 217 646 0.740 10000.000 0.000 1.165
141 423.00 35132.76 215 564 0.740 10000.000 0.000 1.165
142 426.00 35132.76 237 562 0.740 10000.000 0.000 1.165
143 429.00 35132.76 223 523 0.740 10000.000 0.000 1.165
144 432.00 35132.76 222 518 0.740 10000.000 0.000 1.165
