# BinNR microsec tot-time (s)  O-Beam AUX Ampl(V) f(Hz) phase(deg) chi(pos)
0 0.00 1500.00 113 384 0.740 10000.000 0.000 -1.176
1 3.00 1500.00 215 803 0.740 10000.000 0.000 -1.176
2 6.00 1500.00 200 796 0.740 10000.000 0.000 -1.176
3 9.00 1500.00 209 771 0.740 10000.000 0.000 -1.176
4 12.00 1500.00 191 861 0.740 10000.000 0.000 -1.176
5 15.00 1500.00 192 764 0.740 10000.000 0.000 -1.176
6 18.00 1500.00 199 732 0.740 10000.000 0.000 -1.176
7 21.00 1500.00 167 679 0.740 10000.000 0.000 -1.176
8 24.00 1500.00 161 720 0.740 10000.000 0.000 -1.176
9 27.00 1500.00 172 674 0.740 10000.000 0.000 -1.176
10 30.00 1500.00 154 668 0.740 10000.000 0.000 -1.176
11 33.00 1500.00 144 609 0.740 10000.000 0.000 -1.176
12 36.00 1500.00 154 618 0.740 10000.000 0.000 -1.176
13 39.00 1500.00 163 640 0.740 10000.000 0.000 -1.176
14 42.00 1500.00 167 704 0.740 10000.000 0.000 -1.176
15 45.00 1500.00 140 724 0.740 10000.000 0.000 -1.176
16 48.00 1500.00 160 798 0.740 10000.000 0.000 -1.176
17 51.00 1500.00 168 744 0.740 10000.000 0.000 -1.176
18 54.00 1500.00 180 811 0.740 10000.000 0.000 -1.176
19 57.00 1500.00 164 749 0.740 10000.000 0.000 -1.176
20 60.00 1500.00 206 859 0.740 10000.000 0.000 -1.176
21 63.00 1500.00 200 768 0.740 10000.000 0.000 -1.176
22 66.00 1500.00 205 715 0.740 10000.000 0.000 -1.176
23 69.00 1500.00 239 668 0.740 10000.000 0.000 -1.176
24 72.00 1500.00 218 724 0.740 10000.000 0.000 -1.176
25 75.00 1500.00 226 624 0.740 10000.000 0.000 -1.176
26 78.00 1500.00 276 634 0.740 10000.000 0.000 -1.176
27 81.00 1500.00 225 584 0.740 10000.000 0.000 -1.176
28 84.00 1500.00 231 564 0.740 10000.000 0.000 -1.176
29 87.00 1500.00 225 543 0.740 10000.000 0.000 -1.176
30 90.00 1500.00 226 530 0.740 10000.000 0.000 -1.176
31 93.00 1500.00 248 524 0.740 10000.000 0.000 -1.176
32 96.00 1500.00 230 440 0.740 10000.000 0.000 -1.176
33 99.00 1500.00 212 502 0.740 10000.000 0.000 -1.176
34 102.00 1500.00 237 480 0.740 10000.000 0.000 -1.176
35 105.00 1500.00 228 472 0.740 10000.000 0.000 -1.176
36 108.00 1500.00 206 542 0.740 10000.000 0.000 -1.176
37 111.00 1500.00 171 572 0.740 10000.000 0.000 -1.176
38 114.00 1500.00 183 581 0.740 10000.000 0.000 -1.176
39 117.00 1500.00 193 572 0.740 10000.000 0.000 -1.176
40 120.00 1500.00 201 633 0.740 10000.000 0.000 -1.176
41 123.00 1500.00 144 628 0.740 10000.000 0.000 -1.176
42 126.00 1500.00 194 716 0.740 10000.000 0.000 -1.176
43 129.00 1500.00 134 744 0.740 10000.000 0.000 -1.176
44 132.00 1500.00 166 737 0.740 10000.000 0.000 -1.176
45 135.00 1500.00 171 780 0.740 10000.000 0.000 -1.176
46 138.00 1500.00 151 792 0.740 10000.000 0.000 -1.176
47 141.00 1500.00 169 844 0.740 10000.000 0.000 -1.176
48 144.00 1500.00 151 868 0.740 10000.000 0.000 -1.176
49 147.00 1500.00 165 883 0.740 10000.000 0.000 -1.176
50 150.00 1500.00 217 862 0.740 10000.000 0.000 -1.176
51 153.00 1500.00 195 895 0.740 10000.000 0.000 -1.176
52 156.00 1500.00 186 838 0.740 10000.000 0.000 -1.176
53 159.00 1500.00 205 785 0.740 10000.000 0.000 -1.176
54 162.00 1500.00 198 816 0.740 10000.000 0.000 -1.176
55 165.00 1500.00 212 834 0.740 10000.000 0.000 -1.176
56 168.00 1500.00 211 699 0.740 10000.000 0.000 -1.176
57 171.00 1500.00 253 675 0.740 10000.000 0.000 -1.176
58 174.00 1500.00 215 668 0.740 10000.000 0.000 -1.176
59 177.00 1500.00 246 636 0.740 10000.000 0.000 -1.176
60 180.00 1500.00 278 614 0.740 10000.000 0.000 -1.176
61 183.00 1500.00 234 555 0.740 10000.000 0.000 -1.176
62 186.00 1500.00 251 517 0.740 10000.000 0.000 -1.176
63 189.00 1500.00 217 494 0.740 10000.000 0.000 -1.176
64 192.00 1500.00 236 497 0.740 10000.000 0.000 -1.176
65 195.00 1500.00 249 499 0.740 10000.000 0.000 -1.176
66 198.00 1500.00 236 505 0.740 10000.000 0.000 -1.176
67 201.00 1500.00 223 492 0.740 10000.000 0.000 -1.176
68 204.00 1500.00 241 497 0.740 10000.000 0.000 -1.176
69 207.00 1500.00 194 541 0.740 10000.000 0.000 -1.176
70 210.00 1500.00 190 547 0.740 10000.000 0.000 -1.176
71 213.00 1500.00 198 560 0.740 10000.000 0.000 -1.176
72 216.00 1500.00 153 565 0.740 10000.000 0.000 -1.176
73 219.00 1500.00 170 596 0.740 10000.000 0.000 -1.176
74 222.00 1500.00 174 667 0.740 10000.000 0.000 -1.176
75 225.00 1500.00 154 689 0.740 10000.000 0.000 -1.176
76 228.00 1500.00 169 695 0.740 10000.000 0.000 -1.176
77 231.00 1500.00 146 728 0.740 10000.000 0.000 -1.176
78 234.00 1500.00 164 792 0.740 10000.000 0.000 -1.176
79 237.00 1500.00 156 843 0.740 10000.000 0.000 -1.176
80 240.00 1500.00 169 842 0.740 10000.000 0.000 -1.176
81 243.00 1500.00 142 865 0.740 10000.000 0.000 -1.176
82 246.00 1500.00 184 908 0.740 10000.000 0.000 -1.176
83 249.00 1500.00 194 848 0.740 10000.000 0.000 -1.176
84 252.00 1500.00 161 849 0.740 10000.000 0.000 -1.176
85 255.00 1500.00 176 832 0.740 10000.000 0.000 -1.176
86 258.00 1500.00 198 814 0.740 10000.000 0.000 -1.176
87 261.00 1500.00 211 765 0.740 10000.000 0.000 -1.176
88 264.00 1500.00 221 745 0.740 10000.000 0.000 -1.176
89 267.00 1500.00 230 691 0.740 10000.000 0.000 -1.176
90 270.00 1500.00 226 724 0.740 10000.000 0.000 -1.176
91 273.00 1500.00 201 623 0.740 10000.000 0.000 -1.176
92 276.00 1500.00 245 619 0.740 10000.000 0.000 -1.176
93 279.00 1500.00 206 574 0.740 10000.000 0.000 -1.176
94 282.00 1500.00 260 570 0.740 10000.000 0.000 -1.176
95 285.00 1500.00 242 495 0.740 10000.000 0.000 -1.176
96 288.00 1500.00 217 530 0.740 10000.000 0.000 -1.176
97 291.00 1500.00 224 495 0.740 10000.000 0.000 -1.176
98 294.00 1500.00 198 496 0.740 10000.000 0.000 -1.176
99 297.00 1500.00 193 476 0.740 10000.000 0.000 -1.176
100 300.00 1500.00 196 469 0.740 10000.000 0.000 -1.176
101 303.00 1500.00 219 466 0.740 10000.000 0.000 -1.176
102 306.00 1500.00 219 480 0.740 10000.000 0.000 -1.176
103 309.00 1500.00 195 511 0.740 10000.000 0.000 -1.176
104 312.00 1500.00 206 541 0.740 10000.000 0.000 -1.176
105 315.00 1500.00 224 540 0.740 10000.000 0.000 -1.176
106 318.00 1500.00 205 681 0.740 10000.000 0.000 -1.176
107 321.00 1500.00 222 618 0.740 10000.000 0.000 -1.176
108 324.00 1500.00 240 684 0.740 10000.000 0.000 -1.176
109 327.00 1500.00 227 691 0.740 10000.000 0.000 -1.176
110 330.00 1500.00 238 761 0.740 10000.000 0.000 -1.176
111 333.00 1500.00 212 825 0.740 10000.000 0.000 -1.176
112 336.00 1500.00 176 780 0.740 10000.000 0.000 -1.176
113 339.00 1500.00 229 850 0.740 10000.000 0.000 -1.176
114 342.00 1500.00 214 792 0.740 10000.000 0.000 -1.176
115 345.00 1500.00 190 856 0.740 10000.000 0.000 -1.176
116 348.00 1500.00 198 829 0.740 10000.000 0.000 -1.176
117 351.00 1500.00 164 837 0.740 10000.000 0.000 -1.176
118 354.00 1500.00 167 827 0.740 10000.000 0.000 -1.176
119 357.00 1500.00 174 870 0.740 10000.000 0.000 -1.176
120 360.00 1500.00 156 800 0.740 10000.000 0.000 -1.176
121 363.00 1500.00 158 742 0.740 10000.000 0.000 -1.176
122 366.00 1500.00 157 740 0.740 10000.000 0.000 -1.176
123 369.00 1500.00 161 700 0.740 10000.000 0.000 -1.176
124 372.00 1500.00 140 638 0.740 10000.000 0.000 -1.176
125 375.00 1500.00 140 648 0.740 10000.000 0.000 -1.176
126 378.00 1500.00 143 585 0.740 10000.000 0.000 -1.176
127 381.00 1500.00 162 566 0.740 10000.000 0.000 -1.176
128 384.00 1500.00 161 533 0.740 10000.000 0.000 -1.176
129 387.00 1500.00 161 499 0.740 10000.000 0.000 -1.176
130 390.00 1500.00 194 498 0.740 10000.000 0.000 -1.176
131 393.00 1500.00 190 521 0.740 10000.000 0.000 -1.176
132 396.00 1500.00 179 539 0.740 10000.000 0.000 -1.176
133 399.00 1500.00 216 494 0.740 10000.000 0.000 -1.176
134 402.00 1500.00 235 513 0.740 10000.000 0.000 -1.176
135 405.00 1500.00 227 494 0.740 10000.000 0.000 -1.176
136 408.00 1500.00 231 493 0.740 10000.000 0.000 -1.176
137 411.00 1500.00 231 511 0.740 10000.000 0.000 -1.176
138 414.00 1500.00 251 573 0.740 10000.000 0.000 -1.176
139 417.00 1500.00 231 588 0.740 10000.000 0.000 -1.176
140 420.00 1500.00 242 620 0.740 10000.000 0.000 -1.176
141 423.00 1500.00 259 669 0.740 10000.000 0.000 -1.176
142 426.00 1500.00 268 710 0.740 10000.000 0.000 -1.176
143 429.00 1500.00 248 756 0.740 10000.000 0.000 -1.176
144 432.00 1500.00 210 754 0.740 10000.000 0.000 -1.176
