# BinNR microsec tot-time (s)  O-Beam AUX Ampl(V) f(Hz) phase(deg) chi(pos)
0 0.00 1500.01 229 594 0.740 10000.000 0.000 1.494
1 3.00 1500.01 435 1228 0.740 10000.000 0.000 1.494
2 6.00 1500.01 418 1184 0.740 10000.000 0.000 1.494
3 9.00 1500.01 445 1174 0.740 10000.000 0.000 1.494
4 12.00 1500.01 455 1157 0.740 10000.000 0.000 1.494
5 15.00 1500.01 432 1199 0.740 10000.000 0.000 1.494
6 18.00 1500.01 477 1255 0.740 10000.000 0.000 1.494
7 21.00 1500.01 449 1208 0.740 10000.000 0.000 1.494
8 24.00 1500.01 452 1294 0.740 10000.000 0.000 1.494
9 27.00 1500.01 435 1229 0.740 10000.000 0.000 1.494
10 30.00 1500.01 444 1275 0.740 10000.000 0.000 1.494
11 33.00 1500.01 423 1267 0.740 10000.000 0.000 1.494
12 36.00 1500.01 453 1259 0.740 10000.000 0.000 1.494
13 39.00 1500.01 444 1226 0.740 10000.000 0.000 1.494
14 42.00 1500.01 447 1226 0.740 10000.000 0.000 1.494
15 45.00 1500.01 451 1213 0.740 10000.000 0.000 1.494
16 48.00 1500.01 441 1214 0.740 10000.000 0.000 1.494
17 51.00 1500.01 427 1203 0.740 10000.000 0.000 1.494
18 54.00 1500.01 475 1203 0.740 10000.000 0.000 1.494
19 57.00 1500.01 412 1159 0.740 10000.000 0.000 1.494
20 60.00 1500.01 407 1190 0.740 10000.000 0.000 1.494
21 63.00 1500.01 465 1215 0.740 10000.000 0.000 1.494
22 66.00 1500.01 488 1152 0.740 10000.000 0.000 1.494
23 69.00 1500.01 453 1258 0.740 10000.000 0.000 1.494
24 72.00 1500.01 489 1267 0.740 10000.000 0.000 1.494
25 75.00 1500.01 437 1222 0.740 10000.000 0.000 1.494
26 78.00 1500.01 475 1247 0.740 10000.000 0.000 1.494
27 81.00 1500.01 438 1228 0.740 10000.000 0.000 1.494
28 84.00 1500.01 452 1271 0.740 10000.000 0.000 1.494
29 87.00 1500.01 439 1258 0.740 10000.000 0.000 1.494
30 90.00 1500.01 442 1268 0.740 10000.000 0.000 1.494
31 93.00 1500.01 436 1207 0.740 10000.000 0.000 1.494
32 96.00 1500.01 464 1288 0.740 10000.000 0.000 1.494
33 99.00 1500.01 413 1255 0.740 10000.000 0.000 1.494
34 102.00 1500.01 436 1244 0.740 10000.000 0.000 1.494
35 105.00 1500.01 436 1255 0.740 10000.000 0.000 1.494
36 108.00 1500.01 435 1257 0.740 10000.000 0.000 1.494
37 111.00 1500.01 434 1273 0.740 10000.000 0.000 1.494
38 114.00 1500.01 448 1297 0.740 10000.000 0.000 1.494
39 117.00 1500.01 444 1245 0.740 10000.000 0.000 1.494
40 120.00 1500.01 442 1263 0.740 10000.000 0.000 1.494
41 123.00 1500.01 399 1222 0.740 10000.000 0.000 1.494
42 126.00 1500.01 425 1199 0.740 10000.000 0.000 1.494
43 129.00 1500.01 439 1268 0.740 10000.000 0.000 1.494
44 132.00 1500.01 430 1154 0.740 10000.000 0.000 1.494
45 135.00 1500.01 432 1198 0.740 10000.000 0.000 1.494
46 138.00 1500.01 401 1228 0.740 10000.000 0.000 1.494
47 141.00 1500.01 443 1129 0.740 10000.000 0.000 1.494
48 144.00 1500.01 425 1211 0.740 10000.000 0.000 1.494
49 147.00 1500.01 403 1179 0.740 10000.000 0.000 1.494
50 150.00 1500.01 459 1201 0.740 10000.000 0.000 1.494
51 153.00 1500.01 420 1183 0.740 10000.000 0.000 1.494
52 156.00 1500.01 475 1238 0.740 10000.000 0.000 1.494
53 159.00 1500.01 432 1176 0.740 10000.000 0.000 1.494
54 162.00 1500.01 443 1265 0.740 10000.000 0.000 1.494
55 165.00 1500.01 469 1170 0.740 10000.000 0.000 1.494
56 168.00 1500.01 452 1257 0.740 10000.000 0.000 1.494
57 171.00 1500.01 427 1251 0.740 10000.000 0.000 1.494
58 174.00 1500.01 433 1213 0.740 10000.000 0.000 1.494
59 177.00 1500.01 474 1271 0.740 10000.000 0.000 1.494
60 180.00 1500.01 460 1208 0.740 10000.000 0.000 1.494
61 183.00 1500.01 416 1298 0.740 10000.000 0.000 1.494
62 186.00 1500.01 434 1287 0.740 10000.000 0.000 1.494
63 189.00 1500.01 415 1262 0.740 10000.000 0.000 1.494
64 192.00 1500.01 450 1322 0.740 10000.000 0.000 1.494
65 195.00 1500.01 422 1243 0.740 10000.000 0.000 1.494
66 198.00 1500.01 459 1268 0.740 10000.000 0.000 1.494
67 201.00 1500.01 440 1298 0.740 10000.000 0.000 1.494
68 204.00 1500.01 415 1230 0.740 10000.000 0.000 1.494
69 207.00 1500.01 431 1318 0.740 10000.000 0.000 1.494
70 210.00 1500.01 471 1247 0.740 10000.000 0.000 1.494
71 213.00 1500.01 445 1238 0.740 10000.000 0.000 1.494
72 216.00 1500.01 431 1236 0.740 10000.000 0.000 1.494
73 219.00 1500.01 407 1243 0.740 10000.000 0.000 1.494
74 222.00 1500.01 418 1260 0.740 10000.000 0.000 1.494
75 225.00 1500.01 449 1244 0.740 10000.000 0.000 1.494
76 228.00 1500.01 425 1244 0.740 10000.000 0.000 1.494
77 231.00 1500.01 434 1309 0.740 10000.000 0.000 1.494
78 234.00 1500.01 427 1258 0.740 10000.000 0.000 1.494
79 237.00 1500.01 418 1217 0.740 10000.000 0.000 1.494
80 240.00 1500.01 455 1194 0.740 10000.000 0.000 1.494
81 243.00 1500.01 430 1171 0.740 10000.000 0.000 1.494
82 246.00 1500.01 481 1218 0.740 10000.000 0.000 1.494
83 249.00 1500.01 445 1169 0.740 10000.000 0.000 1.494
84 252.00 1500.01 396 1168 0.740 10000.000 0.000 1.494
85 255.00 1500.01 444 1098 0.740 10000.000 0.000 1.494
86 258.00 1500.01 424 1226 0.740 10000.000 0.000 1.494
87 261.00 1500.01 412 1172 0.740 10000.000 0.000 1.494
88 264.00 1500.01 444 1214 0.740 10000.000 0.000 1.494
89 267.00 1500.01 415 1224 0.740 10000.000 0.000 1.494
90 270.00 1500.01 450 1244 0.740 10000.000 0.000 1.494
91 273.00 1500.01 469 1178 0.740 10000.000 0.000 1.494
92 276.00 1500.01 456 1222 0.740 10000.000 0.000 1.494
93 279.00 1500.01 459 1313 0.740 10000.000 0.000 1.494
94 282.00 1500.01 459 1274 0.740 10000.000 0.000 1.494
95 285.00 1500.01 433 1308 0.740 10000.000 0.000 1.494
96 288.00 1500.01 472 1316 0.740 10000.000 0.000 1.494
97 291.00 1500.01 451 1320 0.740 10000.000 0.000 1.494
98 294.00 1500.01 453 1225 0.740 10000.000 0.000 1.494
99 297.00 1500.01 424 1267 0.740 10000.000 0.000 1.494
100 300.00 1500.01 474 1236 0.740 10000.000 0.000 1.494
101 303.00 1500.01 432 1297 0.740 10000.000 0.000 1.494
102 306.00 1500.01 453 1310 0.740 10000.000 0.000 1.494
103 309.00 1500.01 453 1256 0.740 10000.000 0.000 1.494
104 312.00 1500.01 446 1301 0.740 10000.000 0.000 1.494
105 315.00 1500.01 466 1243 0.740 10000.000 0.000 1.494
106 318.00 1500.01 454 1269 0.740 10000.000 0.000 1.494
107 321.00 1500.01 462 1313 0.740 10000.000 0.000 1.494
108 324.00 1500.01 469 1337 0.740 10000.000 0.000 1.494
109 327.00 1500.01 420 1201 0.740 10000.000 0.000 1.494
110 330.00 1500.01 458 1233 0.740 10000.000 0.000 1.494
111 333.00 1500.01 427 1239 0.740 10000.000 0.000 1.494
112 336.00 1500.01 447 1144 0.740 10000.000 0.000 1.494
113 339.00 1500.01 405 1221 0.740 10000.000 0.000 1.494
114 342.00 1500.01 458 1123 0.740 10000.000 0.000 1.494
115 345.00 1500.01 411 1135 0.740 10000.000 0.000 1.494
116 348.00 1500.01 459 1124 0.740 10000.000 0.000 1.494
117 351.00 1500.01 438 1155 0.740 10000.000 0.000 1.494
118 354.00 1500.01 446 1136 0.740 10000.000 0.000 1.494
119 357.00 1500.01 417 1165 0.740 10000.000 0.000 1.494
120 360.00 1500.01 440 1198 0.740 10000.000 0.000 1.494
121 363.00 1500.01 430 1209 0.740 10000.000 0.000 1.494
122 366.00 1500.01 465 1220 0.740 10000.000 0.000 1.494
123 369.00 1500.01 446 1239 0.740 10000.000 0.000 1.494
124 372.00 1500.01 439 1213 0.740 10000.000 0.000 1.494
125 375.00 1500.01 439 1302 0.740 10000.000 0.000 1.494
126 378.00 1500.01 426 1288 0.740 10000.000 0.000 1.494
127 381.00 1500.01 423 1177 0.740 10000.000 0.000 1.494
128 384.00 1500.01 463 1240 0.740 10000.000 0.000 1.494
129 387.00 1500.01 402 1241 0.740 10000.000 0.000 1.494
130 390.00 1500.01 423 1353 0.740 10000.000 0.000 1.494
131 393.00 1500.01 420 1264 0.740 10000.000 0.000 1.494
132 396.00 1500.01 420 1266 0.740 10000.000 0.000 1.494
133 399.00 1500.01 454 1223 0.740 10000.000 0.000 1.494
134 402.00 1500.01 439 1272 0.740 10000.000 0.000 1.494
135 405.00 1500.01 475 1272 0.740 10000.000 0.000 1.494
136 408.00 1500.01 456 1280 0.740 10000.000 0.000 1.494
137 411.00 1500.01 438 1241 0.740 10000.000 0.000 1.494
138 414.00 1500.01 446 1243 0.740 10000.000 0.000 1.494
139 417.00 1500.01 441 1236 0.740 10000.000 0.000 1.494
140 420.00 1500.01 432 1300 0.740 10000.000 0.000 1.494
141 423.00 1500.01 390 1164 0.740 10000.000 0.000 1.494
142 426.00 1500.01 463 1283 0.740 10000.000 0.000 1.494
143 429.00 1500.01 419 1231 0.740 10000.000 0.000 1.494
144 432.00 1500.01 448 1177 0.740 10000.000 0.000 1.494
