# BinNR microsec tot-time (s)  O-Beam AUX Ampl(V) f(Hz) phase(deg) chi(pos)
0 0.00 1500.02 216 659 0.740 10000.000 0.000 -0.681
1 3.00 1500.02 449 1275 0.740 10000.000 0.000 -0.681
2 6.00 1500.02 418 1264 0.740 10000.000 0.000 -0.681
3 9.00 1500.02 424 1250 0.740 10000.000 0.000 -0.681
4 12.00 1500.02 416 1342 0.740 10000.000 0.000 -0.681
5 15.00 1500.02 405 1324 0.740 10000.000 0.000 -0.681
6 18.00 1500.02 396 1220 0.740 10000.000 0.000 -0.681
7 21.00 1500.02 441 1270 0.740 10000.000 0.000 -0.681
8 24.00 1500.02 436 1244 0.740 10000.000 0.000 -0.681
9 27.00 1500.02 373 1273 0.740 10000.000 0.000 -0.681
10 30.00 1500.02 374 1267 0.740 10000.000 0.000 -0.681
11 33.00 1500.02 420 1237 0.740 10000.000 0.000 -0.681
12 36.00 1500.02 394 1255 0.740 10000.000 0.000 -0.681
13 39.00 1500.02 349 1302 0.740 10000.000 0.000 -0.681
14 42.00 1500.02 384 1302 0.740 10000.000 0.000 -0.681
15 45.00 1500.02 401 1257 0.740 10000.000 0.000 -0.681
16 48.00 1500.02 430 1274 0.740 10000.000 0.000 -0.681
17 51.00 1500.02 420 1223 0.740 10000.000 0.000 -0.681
18 54.00 1500.02 447 1317 0.740 10000.000 0.000 -0.681
19 57.00 1500.02 418 1294 0.740 10000.000 0.000 -0.681
20 60.00 1500.02 407 1271 0.740 10000.000 0.000 -0.681
21 63.00 1500.02 411 1209 0.740 10000.000 0.000 -0.681
22 66.00 1500.02 437 1266 0.740 10000.000 0.000 -0.681
23 69.00 1500.02 467 1215 0.740 10000.000 0.000 -0.681
24 72.00 1500.02 426 1343 0.740 10000.000 0.000 -0.681
25 75.00 1500.02 428 1283 0.740 10000.000 0.000 -0.681
26 78.00 1500.02 491 1208 0.740 10000.000 0.000 -0.681
27 81.00 1500.02 408 1224 0.740 10000.000 0.000 -0.681
28 84.00 1500.02 424 1243 0.740 10000.000 0.000 -0.681
29 87.00 1500.02 433 1289 0.740 10000.000 0.000 -0.681
30 90.00 1500.02 397 1199 0.740 10000.000 0.000 -0.681
31 93.00 1500.02 438 1166 0.740 10000.000 0.000 -0.681
32 96.00 1500.02 455 1221 0.740 10000.000 0.000 -0.681
33 99.00 1500.02 443 1162 0.740 10000.000 0.000 -0.681
34 102.00 1500.02 427 1177 0.740 10000.000 0.000 -0.681
35 105.00 1500.02 414 1218 0.740 10000.000 0.000 -0.681
36 108.00 1500.02 441 1304 0.740 10000.000 0.000 -0.681
37 111.00 1500.02 432 1175 0.740 10000.000 0.000 -0.681
38 114.00 1500.02 411 1225 0.740 10000.000 0.000 -0.681
39 117.00 1500.02 443 1225 0.740 10000.000 0.000 -0.681
40 120.00 1500.02 390 1306 0.740 10000.000 0.000 -0.681
41 123.00 1500.02 425 1328 0.740 10000.000 0.000 -0.681
42 126.00 1500.02 396 1292 0.740 10000.000 0.000 -0.681
43 129.00 1500.02 377 1240 0.740 10000.000 0.000 -0.681
44 132.00 1500.02 393 1286 0.740 10000.000 0.000 -0.681
45 135.00 1500.02 397 1265 0.740 10000.000 0.000 -0.681
46 138.00 1500.02 387 1298 0.740 10000.000 0.000 -0.681
47 141.00 1500.02 385 1261 0.740 10000.000 0.000 -0.681
48 144.00 1500.02 411 1243 0.740 10000.000 0.000 -0.681
49 147.00 1500.02 398 1204 0.740 10000.000 0.000 -0.681
50 150.00 1500.02 426 1238 0.740 10000.000 0.000 -0.681
51 153.00 1500.02 374 1256 0.740 10000.000 0.000 -0.681
52 156.00 1500.02 428 1242 0.740 10000.000 0.000 -0.681
53 159.00 1500.02 418 1295 0.740 10000.000 0.000 -0.681
54 162.00 1500.02 444 1318 0.740 10000.000 0.000 -0.681
55 165.00 1500.02 457 1289 0.740 10000.000 0.000 -0.681
56 168.00 1500.02 400 1278 0.740 10000.000 0.000 -0.681
57 171.00 1500.02 426 1210 0.740 10000.000 0.000 -0.681
58 174.00 1500.02 420 1283 0.740 10000.000 0.000 -0.681
59 177.00 1500.02 425 1227 0.740 10000.000 0.000 -0.681
60 180.00 1500.02 463 1270 0.740 10000.000 0.000 -0.681
61 183.00 1500.02 501 1271 0.740 10000.000 0.000 -0.681
62 186.00 1500.02 456 1246 0.740 10000.000 0.000 -0.681
63 189.00 1500.02 428 1246 0.740 10000.000 0.000 -0.681
64 192.00 1500.02 452 1196 0.740 10000.000 0.000 -0.681
65 195.00 1500.02 407 1208 0.740 10000.000 0.000 -0.681
66 198.00 1500.02 446 1244 0.740 10000.000 0.000 -0.681
67 201.00 1500.02 440 1184 0.740 10000.000 0.000 -0.681
68 204.00 1500.02 413 1240 0.740 10000.000 0.000 -0.681
69 207.00 1500.02 431 1233 0.740 10000.000 0.000 -0.681
70 210.00 1500.02 460 1311 0.740 10000.000 0.000 -0.681
71 213.00 1500.02 447 1257 0.740 10000.000 0.000 -0.681
72 216.00 1500.02 412 1216 0.740 10000.000 0.000 -0.681
73 219.00 1500.02 383 1198 0.740 10000.000 0.000 -0.681
74 222.00 1500.02 407 1306 0.740 10000.000 0.000 -0.681
75 225.00 1500.02 404 1249 0.740 10000.000 0.000 -0.681
76 228.00 1500.02 408 1199 0.740 10000.000 0.000 -0.681
77 231.00 1500.02 424 1237 0.740 10000.000 0.000 -0.681
78 234.00 1500.02 402 1244 0.740 10000.000 0.000 -0.681
79 237.00 1500.02 397 1271 0.740 10000.000 0.000 -0.681
80 240.00 1500.02 378 1254 0.740 10000.000 0.000 -0.681
81 243.00 1500.02 432 1303 0.740 10000.000 0.000 -0.681
82 246.00 1500.02 466 1287 0.740 10000.000 0.000 -0.681
83 249.00 1500.02 438 1292 0.740 10000.000 0.000 -0.681
84 252.00 1500.02 457 1283 0.740 10000.000 0.000 -0.681
85 255.00 1500.02 406 1241 0.740 10000.000 0.000 -0.681
86 258.00 1500.02 398 1246 0.740 10000.000 0.000 -0.681
87 261.00 1500.02 415 1203 0.740 10000.000 0.000 -0.681
88 264.00 1500.02 425 1269 0.740 10000.000 0.000 -0.681
89 267.00 1500.02 414 1238 0.740 10000.000 0.000 -0.681
90 270.00 1500.02 440 1263 0.740 10000.000 0.000 -0.681
91 273.00 1500.02 434 1225 0.740 10000.000 0.000 -0.681
92 276.00 1500.02 408 1249 0.740 10000.000 0.000 -0.681
93 279.00 1500.02 438 1243 0.740 10000.000 0.000 -0.681
94 282.00 1500.02 503 1310 0.740 10000.000 0.000 -0.681
95 285.00 1500.02 419 1242 0.740 10000.000 0.000 -0.681
96 288.00 1500.02 460 1214 0.740 10000.000 0.000 -0.681
97 291.00 1500.02 429 1206 0.740 10000.000 0.000 -0.681
98 294.00 1500.02 412 1255 0.740 10000.000 0.000 -0.681
99 297.00 1500.02 402 1189 0.740 10000.000 0.000 -0.681
100 300.00 1500.02 438 1285 0.740 10000.000 0.000 -0.681
101 303.00 1500.02 438 1260 0.740 10000.000 0.000 -0.681
102 306.00 1500.02 406 1289 0.740 10000.000 0.000 -0.681
103 309.00 1500.02 402 1186 0.740 10000.000 0.000 -0.681
104 312.00 1500.02 448 1241 0.740 10000.000 0.000 -0.681
105 315.00 1500.02 421 1299 0.740 10000.000 0.000 -0.681
106 318.00 1500.02 435 1314 0.740 10000.000 0.000 -0.681
107 321.00 1500.02 422 1266 0.740 10000.000 0.000 -0.681
108 324.00 1500.02 475 1294 0.740 10000.000 0.000 -0.681
109 327.00 1500.02 454 1269 0.740 10000.000 0.000 -0.681
110 330.00 1500.02 461 1315 0.740 10000.000 0.000 -0.681
111 333.00 1500.02 425 1261 0.740 10000.000 0.000 -0.681
112 336.00 1500.02 472 1310 0.740 10000.000 0.000 -0.681
113 339.00 1500.02 405 1234 0.740 10000.000 0.000 -0.681
114 342.00 1500.02 399 1286 0.740 10000.000 0.000 -0.681
115 345.00 1500.02 410 1225 0.740 10000.000 0.000 -0.681
116 348.00 1500.02 404 1151 0.740 10000.000 0.000 -0.681
117 351.00 1500.02 413 1229 0.740 10000.000 0.000 -0.681
118 354.00 1500.02 432 1296 0.740 10000.000 0.000 -0.681
119 357.00 1500.02 408 1199 0.740 10000.000 0.000 -0.681
120 360.00 1500.02 399 1279 0.740 10000.000 0.000 -0.681
121 363.00 1500.02 365 1249 0.740 10000.000 0.000 -0.681
122 366.00 1500.02 397 1245 0.740 10000.000 0.000 -0.681
123 369.00 1500.02 382 1220 0.740 10000.000 0.000 -0.681
124 372.00 1500.02 404 1261 0.740 10000.000 0.000 -0.681
125 375.00 1500.02 395 1246 0.740 10000.000 0.000 -0.681
126 378.00 1500.02 387 1274 0.740 10000.000 0.000 -0.681
127 381.00 1500.02 388 1222 0.740 10000.000 0.000 -0.681
128 384.00 1500.02 427 1214 0.740 10000.000 0.000 -0.681
129 387.00 1500.02 450 1228 0.740 10000.000 0.000 -0.681
130 390.00 1500.02 417 1210 0.740 10000.000 0.000 -0.681
131 393.00 1500.02 410 1200 0.740 10000.000 0.000 -0.681
132 396.00 1500.02 430 1237 0.740 10000.000 0.000 -0.681
133 399.00 1500.02 407 1229 0.740 10000.000 0.000 -0.681
134 402.00 1500.02 440 1171 0.740 10000.000 0.000 -0.681
135 405.00 1500.02 457 1289 0.740 10000.000 0.000 -0.681
136 408.00 1500.02 432 1206 0.740 10000.000 0.000 -0.681
137 411.00 1500.02 458 1201 0.740 10000.000 0.000 -0.681
138 414.00 1500.02 427 1287 0.740 10000.000 0.000 -0.681
139 417.00 1500.02 437 1246 0.740 10000.000 0.000 -0.681
140 420.00 1500.02 456 1299 0.740 10000.000 0.000 -0.681
141 423.00 1500.02 432 1220 0.740 10000.000 0.000 -0.681
142 426.00 1500.02 454 1299 0.740 10000.000 0.000 -0.681
143 429.00 1500.02 447 1205 0.740 10000.000 0.000 -0.681
144 432.00 1500.02 429 1272 0.740 10000.000 0.000 -0.681
