# BinNR microsec tot-time (s)  O-Beam AUX Ampl(V) f(Hz) phase(deg) chi(pos)
0 0.00 1200.01 133 301 1.100 10000.000 0.000 -0.505
1 3.00 1200.01 222 587 1.100 10000.000 0.000 -0.505
2 6.00 1200.01 249 561 1.100 10000.000 0.000 -0.505
3 9.00 1200.01 235 598 1.100 10000.000 0.000 -0.505
4 12.00 1200.01 249 589 1.100 10000.000 0.000 -0.505
5 15.00 1200.01 241 580 1.100 10000.000 0.000 -0.505
6 18.00 1200.01 227 577 1.100 10000.000 0.000 -0.505
7 21.00 1200.01 228 626 1.100 10000.000 0.000 -0.505
8 24.00 1200.01 232 636 1.100 10000.000 0.000 -0.505
9 27.00 1200.01 214 600 1.100 10000.000 0.000 -0.505
10 30.00 1200.01 218 633 1.100 10000.000 0.000 -0.505
11 33.00 1200.01 213 637 1.100 10000.000 0.000 -0.505
12 36.00 1200.01 207 602 1.100 10000.000 0.000 -0.505
13 39.00 1200.01 237 646 1.100 10000.000 0.000 -0.505
14 42.00 1200.01 214 631 1.100 10000.000 0.000 -0.505
15 45.00 1200.01 241 643 1.100 10000.000 0.000 -0.505
16 48.00 1200.01 226 627 1.100 10000.000 0.000 -0.505
17 51.00 1200.01 229 601 1.100 10000.000 0.000 -0.505
18 54.00 1200.01 212 613 1.100 10000.000 0.000 -0.505
19 57.00 1200.01 229 614 1.100 10000.000 0.000 -0.505
20 60.00 1200.01 232 605 1.100 10000.000 0.000 -0.505
21 63.00 1200.01 245 580 1.100 10000.000 0.000 -0.505
22 66.00 1200.01 226 573 1.100 10000.000 0.000 -0.505
23 69.00 1200.01 215 625 1.100 10000.000 0.000 -0.505
24 72.00 1200.01 233 646 1.100 10000.000 0.000 -0.505
25 75.00 1200.01 233 600 1.100 10000.000 0.000 -0.505
26 78.00 1200.01 244 639 1.100 10000.000 0.000 -0.505
27 81.00 1200.01 247 635 1.100 10000.000 0.000 -0.505
28 84.00 1200.01 236 644 1.100 10000.000 0.000 -0.505
29 87.00 1200.01 255 654 1.100 10000.000 0.000 -0.505
30 90.00 1200.01 291 652 1.100 10000.000 0.000 -0.505
31 93.00 1200.01 251 610 1.100 10000.000 0.000 -0.505
32 96.00 1200.01 260 632 1.100 10000.000 0.000 -0.505
33 99.00 1200.01 238 584 1.100 10000.000 0.000 -0.505
34 102.00 1200.01 237 640 1.100 10000.000 0.000 -0.505
35 105.00 1200.01 246 626 1.100 10000.000 0.000 -0.505
36 108.00 1200.01 222 628 1.100 10000.000 0.000 -0.505
37 111.00 1200.01 233 632 1.100 10000.000 0.000 -0.505
38 114.00 1200.01 207 637 1.100 10000.000 0.000 -0.505
39 117.00 1200.01 222 665 1.100 10000.000 0.000 -0.505
40 120.00 1200.01 237 664 1.100 10000.000 0.000 -0.505
41 123.00 1200.01 217 624 1.100 10000.000 0.000 -0.505
42 126.00 1200.01 229 604 1.100 10000.000 0.000 -0.505
43 129.00 1200.01 204 569 1.100 10000.000 0.000 -0.505
44 132.00 1200.01 226 607 1.100 10000.000 0.000 -0.505
45 135.00 1200.01 233 588 1.100 10000.000 0.000 -0.505
46 138.00 1200.01 234 577 1.100 10000.000 0.000 -0.505
47 141.00 1200.01 208 551 1.100 10000.000 0.000 -0.505
48 144.00 1200.01 245 550 1.100 10000.000 0.000 -0.505
49 147.00 1200.01 215 566 1.100 10000.000 0.000 -0.505
50 150.00 1200.01 236 563 1.100 10000.000 0.000 -0.505
51 153.00 1200.01 252 567 1.100 10000.000 0.000 -0.505
52 156.00 1200.01 198 558 1.100 10000.000 0.000 -0.505
53 159.00 1200.01 248 574 1.100 10000.000 0.000 -0.505
54 162.00 1200.01 238 594 1.100 10000.000 0.000 -0.505
55 165.00 1200.01 237 622 1.100 10000.000 0.000 -0.505
56 168.00 1200.01 256 561 1.100 10000.000 0.000 -0.505
57 171.00 1200.01 236 658 1.100 10000.000 0.000 -0.505
58 174.00 1200.01 245 587 1.100 10000.000 0.000 -0.505
59 177.00 1200.01 255 607 1.100 10000.000 0.000 -0.505
60 180.00 1200.01 230 600 1.100 10000.000 0.000 -0.505
61 183.00 1200.01 238 626 1.100 10000.000 0.000 -0.505
62 186.00 1200.01 248 640 1.100 10000.000 0.000 -0.505
63 189.00 1200.01 240 570 1.100 10000.000 0.000 -0.505
64 192.00 1200.01 247 615 1.100 10000.000 0.000 -0.505
65 195.00 1200.01 243 589 1.100 10000.000 0.000 -0.505
66 198.00 1200.01 245 590 1.100 10000.000 0.000 -0.505
67 201.00 1200.01 245 580 1.100 10000.000 0.000 -0.505
68 204.00 1200.01 255 622 1.100 10000.000 0.000 -0.505
69 207.00 1200.01 217 593 1.100 10000.000 0.000 -0.505
70 210.00 1200.01 230 652 1.100 10000.000 0.000 -0.505
71 213.00 1200.01 242 612 1.100 10000.000 0.000 -0.505
72 216.00 1200.01 225 598 1.100 10000.000 0.000 -0.505
73 219.00 1200.01 231 636 1.100 10000.000 0.000 -0.505
74 222.00 1200.01 226 629 1.100 10000.000 0.000 -0.505
75 225.00 1200.01 232 568 1.100 10000.000 0.000 -0.505
76 228.00 1200.01 221 577 1.100 10000.000 0.000 -0.505
77 231.00 1200.01 209 560 1.100 10000.000 0.000 -0.505
78 234.00 1200.01 217 612 1.100 10000.000 0.000 -0.505
79 237.00 1200.01 214 529 1.100 10000.000 0.000 -0.505
80 240.00 1200.01 232 565 1.100 10000.000 0.000 -0.505
81 243.00 1200.01 240 558 1.100 10000.000 0.000 -0.505
82 246.00 1200.01 211 566 1.100 10000.000 0.000 -0.505
83 249.00 1200.01 231 578 1.100 10000.000 0.000 -0.505
84 252.00 1200.01 237 604 1.100 10000.000 0.000 -0.505
85 255.00 1200.01 247 564 1.100 10000.000 0.000 -0.505
86 258.00 1200.01 257 601 1.100 10000.000 0.000 -0.505
87 261.00 1200.01 228 559 1.100 10000.000 0.000 -0.505
88 264.00 1200.01 236 651 1.100 10000.000 0.000 -0.505
89 267.00 1200.01 265 580 1.100 10000.000 0.000 -0.505
90 270.00 1200.01 220 658 1.100 10000.000 0.000 -0.505
91 273.00 1200.01 232 659 1.100 10000.000 0.000 -0.505
92 276.00 1200.01 276 626 1.100 10000.000 0.000 -0.505
93 279.00 1200.01 245 639 1.100 10000.000 0.000 -0.505
94 282.00 1200.01 244 639 1.100 10000.000 0.000 -0.505
95 285.00 1200.01 231 607 1.100 10000.000 0.000 -0.505
96 288.00 1200.01 239 647 1.100 10000.000 0.000 -0.505
97 291.00 1200.01 225 643 1.100 10000.000 0.000 -0.505
98 294.00 1200.01 215 632 1.100 10000.000 0.000 -0.505
99 297.00 1200.01 245 604 1.100 10000.000 0.000 -0.505
100 300.00 1200.01 236 621 1.100 10000.000 0.000 -0.505
101 303.00 1200.01 276 630 1.100 10000.000 0.000 -0.505
102 306.00 1200.01 240 653 1.100 10000.000 0.000 -0.505
103 309.00 1200.01 246 620 1.100 10000.000 0.000 -0.505
104 312.00 1200.01 224 616 1.100 10000.000 0.000 -0.505
105 315.00 1200.01 248 614 1.100 10000.000 0.000 -0.505
106 318.00 1200.01 252 636 1.100 10000.000 0.000 -0.505
107 321.00 1200.01 241 629 1.100 10000.000 0.000 -0.505
108 324.00 1200.01 245 662 1.100 10000.000 0.000 -0.505
109 327.00 1200.01 261 615 1.100 10000.000 0.000 -0.505
110 330.00 1200.01 252 581 1.100 10000.000 0.000 -0.505
111 333.00 1200.01 255 628 1.100 10000.000 0.000 -0.505
112 336.00 1200.01 248 553 1.100 10000.000 0.000 -0.505
113 339.00 1200.01 249 524 1.100 10000.000 0.000 -0.505
114 342.00 1200.01 230 589 1.100 10000.000 0.000 -0.505
115 345.00 1200.01 275 615 1.100 10000.000 0.000 -0.505
116 348.00 1200.01 261 583 1.100 10000.000 0.000 -0.505
117 351.00 1200.01 242 553 1.100 10000.000 0.000 -0.505
118 354.00 1200.01 244 561 1.100 10000.000 0.000 -0.505
119 357.00 1200.01 234 568 1.100 10000.000 0.000 -0.505
120 360.00 1200.01 229 585 1.100 10000.000 0.000 -0.505
121 363.00 1200.01 228 629 1.100 10000.000 0.000 -0.505
122 366.00 1200.01 231 645 1.100 10000.000 0.000 -0.505
123 369.00 1200.01 201 638 1.100 10000.000 0.000 -0.505
124 372.00 1200.01 205 668 1.100 10000.000 0.000 -0.505
125 375.00 1200.01 222 631 1.100 10000.000 0.000 -0.505
126 378.00 1200.01 237 662 1.100 10000.000 0.000 -0.505
127 381.00 1200.01 250 640 1.100 10000.000 0.000 -0.505
128 384.00 1200.01 229 624 1.100 10000.000 0.000 -0.505
129 387.00 1200.01 236 631 1.100 10000.000 0.000 -0.505
130 390.00 1200.01 204 626 1.100 10000.000 0.000 -0.505
131 393.00 1200.01 226 624 1.100 10000.000 0.000 -0.505
132 396.00 1200.01 257 622 1.100 10000.000 0.000 -0.505
133 399.00 1200.01 243 608 1.100 10000.000 0.000 -0.505
134 402.00 1200.01 242 642 1.100 10000.000 0.000 -0.505
135 405.00 1200.01 232 607 1.100 10000.000 0.000 -0.505
136 408.00 1200.01 256 627 1.100 10000.000 0.000 -0.505
137 411.00 1200.01 239 628 1.100 10000.000 0.000 -0.505
138 414.00 1200.01 253 632 1.100 10000.000 0.000 -0.505
139 417.00 1200.01 212 603 1.100 10000.000 0.000 -0.505
140 420.00 1200.01 275 649 1.100 10000.000 0.000 -0.505
141 423.00 1200.01 254 602 1.100 10000.000 0.000 -0.505
142 426.00 1200.01 236 620 1.100 10000.000 0.000 -0.505
143 429.00 1200.01 251 569 1.100 10000.000 0.000 -0.505
144 432.00 1200.01 249 591 1.100 10000.000 0.000 -0.505
