# BinNR microsec tot-time (s)  O-Beam AUX Ampl_1(V) f_1(Hz) phase_1(deg) Ampl_2(V) f_2(Hz) phase_2(deg) chi(pos)
0 0.00 1500.03 488 1146 1.520 10000.000 0.000 0.000 0.000 0.000 1.340
1 3.00 1500.03 895 2231 1.520 10000.000 0.000 0.000 0.000 0.000 1.340
2 6.00 1500.03 858 2299 1.520 10000.000 0.000 0.000 0.000 0.000 1.340
3 9.00 1500.03 877 2243 1.520 10000.000 0.000 0.000 0.000 0.000 1.340
4 12.00 1500.03 941 2299 1.520 10000.000 0.000 0.000 0.000 0.000 1.340
5 15.00 1500.03 886 2338 1.520 10000.000 0.000 0.000 0.000 0.000 1.340
6 18.00 1500.03 910 2283 1.520 10000.000 0.000 0.000 0.000 0.000 1.340
7 21.00 1500.03 859 2350 1.520 10000.000 0.000 0.000 0.000 0.000 1.340
8 24.00 1500.03 913 2424 1.520 10000.000 0.000 0.000 0.000 0.000 1.340
9 27.00 1500.03 853 2343 1.520 10000.000 0.000 0.000 0.000 0.000 1.340
10 30.00 1500.03 911 2401 1.520 10000.000 0.000 0.000 0.000 0.000 1.340
11 33.00 1500.03 890 2291 1.520 10000.000 0.000 0.000 0.000 0.000 1.340
12 36.00 1500.03 947 2298 1.520 10000.000 0.000 0.000 0.000 0.000 1.340
13 39.00 1500.03 920 2272 1.520 10000.000 0.000 0.000 0.000 0.000 1.340
14 42.00 1500.03 847 2328 1.520 10000.000 0.000 0.000 0.000 0.000 1.340
15 45.00 1500.03 879 2271 1.520 10000.000 0.000 0.000 0.000 0.000 1.340
16 48.00 1500.03 873 2303 1.520 10000.000 0.000 0.000 0.000 0.000 1.340
17 51.00 1500.03 860 2261 1.520 10000.000 0.000 0.000 0.000 0.000 1.340
18 54.00 1500.03 895 2382 1.520 10000.000 0.000 0.000 0.000 0.000 1.340
19 57.00 1500.03 922 2293 1.520 10000.000 0.000 0.000 0.000 0.000 1.340
20 60.00 1500.03 828 2330 1.520 10000.000 0.000 0.000 0.000 0.000 1.340
21 63.00 1500.03 945 2320 1.520 10000.000 0.000 0.000 0.000 0.000 1.340
22 66.00 1500.03 875 2307 1.520 10000.000 0.000 0.000 0.000 0.000 1.340
23 69.00 1500.03 965 2236 1.520 10000.000 0.000 0.000 0.000 0.000 1.340
24 72.00 1500.03 918 2352 1.520 10000.000 0.000 0.000 0.000 0.000 1.340
25 75.00 1500.03 908 2188 1.520 10000.000 0.000 0.000 0.000 0.000 1.340
26 78.00 1500.03 950 2387 1.520 10000.000 0.000 0.000 0.000 0.000 1.340
27 81.00 1500.03 904 2172 1.520 10000.000 0.000 0.000 0.000 0.000 1.340
28 84.00 1500.03 853 2289 1.520 10000.000 0.000 0.000 0.000 0.000 1.340
29 87.00 1500.03 914 2284 1.520 10000.000 0.000 0.000 0.000 0.000 1.340
30 90.00 1500.03 897 2397 1.520 10000.000 0.000 0.000 0.000 0.000 1.340
31 93.00 1500.03 847 2238 1.520 10000.000 0.000 0.000 0.000 0.000 1.340
32 96.00 1500.03 897 2226 1.520 10000.000 0.000 0.000 0.000 0.000 1.340
33 99.00 1500.03 906 2299 1.520 10000.000 0.000 0.000 0.000 0.000 1.340
34 102.00 1500.03 901 2377 1.520 10000.000 0.000 0.000 0.000 0.000 1.340
35 105.00 1500.03 906 2236 1.520 10000.000 0.000 0.000 0.000 0.000 1.340
36 108.00 1500.03 906 2359 1.520 10000.000 0.000 0.000 0.000 0.000 1.340
37 111.00 1500.03 889 2352 1.520 10000.000 0.000 0.000 0.000 0.000 1.340
38 114.00 1500.03 931 2307 1.520 10000.000 0.000 0.000 0.000 0.000 1.340
39 117.00 1500.03 916 2279 1.520 10000.000 0.000 0.000 0.000 0.000 1.340
40 120.00 1500.03 889 2311 1.520 10000.000 0.000 0.000 0.000 0.000 1.340
41 123.00 1500.03 927 2232 1.520 10000.000 0.000 0.000 0.000 0.000 1.340
42 126.00 1500.03 910 2408 1.520 10000.000 0.000 0.000 0.000 0.000 1.340
43 129.00 1500.03 895 2284 1.520 10000.000 0.000 0.000 0.000 0.000 1.340
44 132.00 1500.03 916 2256 1.520 10000.000 0.000 0.000 0.000 0.000 1.340
45 135.00 1500.03 889 2404 1.520 10000.000 0.000 0.000 0.000 0.000 1.340
46 138.00 1500.03 886 2316 1.520 10000.000 0.000 0.000 0.000 0.000 1.340
47 141.00 1500.03 880 2284 1.520 10000.000 0.000 0.000 0.000 0.000 1.340
48 144.00 1500.03 925 2275 1.520 10000.000 0.000 0.000 0.000 0.000 1.340
49 147.00 1500.03 873 2306 1.520 10000.000 0.000 0.000 0.000 0.000 1.340
50 150.00 1500.03 880 2318 1.520 10000.000 0.000 0.000 0.000 0.000 1.340
51 153.00 1500.03 851 2233 1.520 10000.000 0.000 0.000 0.000 0.000 1.340
52 156.00 1500.03 919 2289 1.520 10000.000 0.000 0.000 0.000 0.000 1.340
53 159.00 1500.03 896 2335 1.520 10000.000 0.000 0.000 0.000 0.000 1.340
54 162.00 1500.03 931 2402 1.520 10000.000 0.000 0.000 0.000 0.000 1.340
55 165.00 1500.03 862 2408 1.520 10000.000 0.000 0.000 0.000 0.000 1.340
56 168.00 1500.03 911 2294 1.520 10000.000 0.000 0.000 0.000 0.000 1.340
57 171.00 1500.03 883 2214 1.520 10000.000 0.000 0.000 0.000 0.000 1.340
58 174.00 1500.03 919 2292 1.520 10000.000 0.000 0.000 0.000 0.000 1.340
59 177.00 1500.03 895 2264 1.520 10000.000 0.000 0.000 0.000 0.000 1.340
60 180.00 1500.03 867 2313 1.520 10000.000 0.000 0.000 0.000 0.000 1.340
61 183.00 1500.03 874 2312 1.520 10000.000 0.000 0.000 0.000 0.000 1.340
62 186.00 1500.03 928 2270 1.520 10000.000 0.000 0.000 0.000 0.000 1.340
63 189.00 1500.03 840 2203 1.520 10000.000 0.000 0.000 0.000 0.000 1.340
64 192.00 1500.03 899 2406 1.520 10000.000 0.000 0.000 0.000 0.000 1.340
65 195.00 1500.03 819 2250 1.520 10000.000 0.000 0.000 0.000 0.000 1.340
66 198.00 1500.03 894 2303 1.520 10000.000 0.000 0.000 0.000 0.000 1.340
67 201.00 1500.03 863 2305 1.520 10000.000 0.000 0.000 0.000 0.000 1.340
68 204.00 1500.03 884 2298 1.520 10000.000 0.000 0.000 0.000 0.000 1.340
69 207.00 1500.03 901 2251 1.520 10000.000 0.000 0.000 0.000 0.000 1.340
70 210.00 1500.03 902 2317 1.520 10000.000 0.000 0.000 0.000 0.000 1.340
71 213.00 1500.03 874 2259 1.520 10000.000 0.000 0.000 0.000 0.000 1.340
72 216.00 1500.03 848 2285 1.520 10000.000 0.000 0.000 0.000 0.000 1.340
73 219.00 1500.03 913 2254 1.520 10000.000 0.000 0.000 0.000 0.000 1.340
74 222.00 1500.03 880 2402 1.520 10000.000 0.000 0.000 0.000 0.000 1.340
75 225.00 1500.03 845 2227 1.520 10000.000 0.000 0.000 0.000 0.000 1.340
76 228.00 1500.03 883 2323 1.520 10000.000 0.000 0.000 0.000 0.000 1.340
77 231.00 1500.03 849 2276 1.520 10000.000 0.000 0.000 0.000 0.000 1.340
78 234.00 1500.03 886 2188 1.520 10000.000 0.000 0.000 0.000 0.000 1.340
79 237.00 1500.03 854 2235 1.520 10000.000 0.000 0.000 0.000 0.000 1.340
80 240.00 1500.03 914 2322 1.520 10000.000 0.000 0.000 0.000 0.000 1.340
81 243.00 1500.03 887 2360 1.520 10000.000 0.000 0.000 0.000 0.000 1.340
82 246.00 1500.03 901 2346 1.520 10000.000 0.000 0.000 0.000 0.000 1.340
83 249.00 1500.03 899 2247 1.520 10000.000 0.000 0.000 0.000 0.000 1.340
84 252.00 1500.03 895 2306 1.520 10000.000 0.000 0.000 0.000 0.000 1.340
85 255.00 1500.03 878 2241 1.520 10000.000 0.000 0.000 0.000 0.000 1.340
86 258.00 1500.03 912 2244 1.520 10000.000 0.000 0.000 0.000 0.000 1.340
87 261.00 1500.03 894 2323 1.520 10000.000 0.000 0.000 0.000 0.000 1.340
88 264.00 1500.03 880 2360 1.520 10000.000 0.000 0.000 0.000 0.000 1.340
89 267.00 1500.03 900 2282 1.520 10000.000 0.000 0.000 0.000 0.000 1.340
90 270.00 1500.03 900 2353 1.520 10000.000 0.000 0.000 0.000 0.000 1.340
91 273.00 1500.03 853 2270 1.520 10000.000 0.000 0.000 0.000 0.000 1.340
92 276.00 1500.03 893 2258 1.520 10000.000 0.000 0.000 0.000 0.000 1.340
93 279.00 1500.03 881 2264 1.520 10000.000 0.000 0.000 0.000 0.000 1.340
94 282.00 1500.03 890 2316 1.520 10000.000 0.000 0.000 0.000 0.000 1.340
95 285.00 1500.03 851 2320 1.520 10000.000 0.000 0.000 0.000 0.000 1.340
96 288.00 1500.03 970 2309 1.520 10000.000 0.000 0.000 0.000 0.000 1.340
97 291.00 1500.03 893 2329 1.520 10000.000 0.000 0.000 0.000 0.000 1.340
98 294.00 1500.03 848 2264 1.520 10000.000 0.000 0.000 0.000 0.000 1.340
99 297.00 1500.03 910 2311 1.520 10000.000 0.000 0.000 0.000 0.000 1.340
100 300.00 1500.03 891 2441 1.520 10000.000 0.000 0.000 0.000 0.000 1.340
101 303.00 1500.03 857 2224 1.520 10000.000 0.000 0.000 0.000 0.000 1.340
102 306.00 1500.03 884 2291 1.520 10000.000 0.000 0.000 0.000 0.000 1.340
103 309.00 1500.03 865 2306 1.520 10000.000 0.000 0.000 0.000 0.000 1.340
104 312.00 1500.03 878 2255 1.520 10000.000 0.000 0.000 0.000 0.000 1.340
105 315.00 1500.03 878 2256 1.520 10000.000 0.000 0.000 0.000 0.000 1.340
106 318.00 1500.03 975 2383 1.520 10000.000 0.000 0.000 0.000 0.000 1.340
107 321.00 1500.03 883 2271 1.520 10000.000 0.000 0.000 0.000 0.000 1.340
108 324.00 1500.03 941 2331 1.520 10000.000 0.000 0.000 0.000 0.000 1.340
109 327.00 1500.03 893 2268 1.520 10000.000 0.000 0.000 0.000 0.000 1.340
110 330.00 1500.03 945 2423 1.520 10000.000 0.000 0.000 0.000 0.000 1.340
111 333.00 1500.03 904 2289 1.520 10000.000 0.000 0.000 0.000 0.000 1.340
112 336.00 1500.03 910 2331 1.520 10000.000 0.000 0.000 0.000 0.000 1.340
113 339.00 1500.03 918 2254 1.520 10000.000 0.000 0.000 0.000 0.000 1.340
114 342.00 1500.03 837 2281 1.520 10000.000 0.000 0.000 0.000 0.000 1.340
115 345.00 1500.03 914 2339 1.520 10000.000 0.000 0.000 0.000 0.000 1.340
116 348.00 1500.03 890 2392 1.520 10000.000 0.000 0.000 0.000 0.000 1.340
117 351.00 1500.03 825 2237 1.520 10000.000 0.000 0.000 0.000 0.000 1.340
118 354.00 1500.03 949 2344 1.520 10000.000 0.000 0.000 0.000 0.000 1.340
119 357.00 1500.03 838 2266 1.520 10000.000 0.000 0.000 0.000 0.000 1.340
120 360.00 1500.03 892 2344 1.520 10000.000 0.000 0.000 0.000 0.000 1.340
121 363.00 1500.03 839 2190 1.520 10000.000 0.000 0.000 0.000 0.000 1.340
122 366.00 1500.03 956 2339 1.520 10000.000 0.000 0.000 0.000 0.000 1.340
123 369.00 1500.03 837 2225 1.520 10000.000 0.000 0.000 0.000 0.000 1.340
124 372.00 1500.03 895 2361 1.520 10000.000 0.000 0.000 0.000 0.000 1.340
125 375.00 1500.03 960 2312 1.520 10000.000 0.000 0.000 0.000 0.000 1.340
126 378.00 1500.03 936 2346 1.520 10000.000 0.000 0.000 0.000 0.000 1.340
127 381.00 1500.03 900 2294 1.520 10000.000 0.000 0.000 0.000 0.000 1.340
128 384.00 1500.03 870 2313 1.520 10000.000 0.000 0.000 0.000 0.000 1.340
129 387.00 1500.03 861 2272 1.520 10000.000 0.000 0.000 0.000 0.000 1.340
130 390.00 1500.03 939 2359 1.520 10000.000 0.000 0.000 0.000 0.000 1.340
131 393.00 1500.03 868 2291 1.520 10000.000 0.000 0.000 0.000 0.000 1.340
132 396.00 1500.03 907 2323 1.520 10000.000 0.000 0.000 0.000 0.000 1.340
133 399.00 1500.03 932 2302 1.520 10000.000 0.000 0.000 0.000 0.000 1.340
134 402.00 1500.03 912 2331 1.520 10000.000 0.000 0.000 0.000 0.000 1.340
135 405.00 1500.03 868 2374 1.520 10000.000 0.000 0.000 0.000 0.000 1.340
136 408.00 1500.03 847 2389 1.520 10000.000 0.000 0.000 0.000 0.000 1.340
137 411.00 1500.03 954 2287 1.520 10000.000 0.000 0.000 0.000 0.000 1.340
138 414.00 1500.03 952 2351 1.520 10000.000 0.000 0.000 0.000 0.000 1.340
139 417.00 1500.03 875 2228 1.520 10000.000 0.000 0.000 0.000 0.000 1.340
140 420.00 1500.03 911 2254 1.520 10000.000 0.000 0.000 0.000 0.000 1.340
141 423.00 1500.03 955 2283 1.520 10000.000 0.000 0.000 0.000 0.000 1.340
142 426.00 1500.03 902 2259 1.520 10000.000 0.000 0.000 0.000 0.000 1.340
143 429.00 1500.03 900 2270 1.520 10000.000 0.000 0.000 0.000 0.000 1.340
144 432.00 1500.03 889 2366 1.520 10000.000 0.000 0.000 0.000 0.000 1.340
