# BinNR microsec tot-time (s)  O-Beam AUX Ampl(V) f(Hz) phase(deg) chi(pos)
0 0.00 1200.00 50 276 3.800 10000.000 0.000 0.923
1 3.00 1200.00 101 482 3.800 10000.000 0.000 0.923
2 6.00 1200.00 114 568 3.800 10000.000 0.000 0.923
3 9.00 1200.00 114 645 3.800 10000.000 0.000 0.923
4 12.00 1200.00 147 713 3.800 10000.000 0.000 0.923
5 15.00 1200.00 139 753 3.800 10000.000 0.000 0.923
6 18.00 1200.00 134 748 3.800 10000.000 0.000 0.923
7 21.00 1200.00 136 720 3.800 10000.000 0.000 0.923
8 24.00 1200.00 180 735 3.800 10000.000 0.000 0.923
9 27.00 1200.00 181 666 3.800 10000.000 0.000 0.923
10 30.00 1200.00 207 547 3.800 10000.000 0.000 0.923
11 33.00 1200.00 223 507 3.800 10000.000 0.000 0.923
12 36.00 1200.00 225 438 3.800 10000.000 0.000 0.923
13 39.00 1200.00 222 414 3.800 10000.000 0.000 0.923
14 42.00 1200.00 217 338 3.800 10000.000 0.000 0.923
15 45.00 1200.00 202 333 3.800 10000.000 0.000 0.923
16 48.00 1200.00 246 308 3.800 10000.000 0.000 0.923
17 51.00 1200.00 222 275 3.800 10000.000 0.000 0.923
18 54.00 1200.00 239 249 3.800 10000.000 0.000 0.923
19 57.00 1200.00 200 271 3.800 10000.000 0.000 0.923
20 60.00 1200.00 223 277 3.800 10000.000 0.000 0.923
21 63.00 1200.00 180 258 3.800 10000.000 0.000 0.923
22 66.00 1200.00 164 331 3.800 10000.000 0.000 0.923
23 69.00 1200.00 157 322 3.800 10000.000 0.000 0.923
24 72.00 1200.00 161 352 3.800 10000.000 0.000 0.923
25 75.00 1200.00 130 401 3.800 10000.000 0.000 0.923
26 78.00 1200.00 110 400 3.800 10000.000 0.000 0.923
27 81.00 1200.00 114 441 3.800 10000.000 0.000 0.923
28 84.00 1200.00 117 545 3.800 10000.000 0.000 0.923
29 87.00 1200.00 98 560 3.800 10000.000 0.000 0.923
30 90.00 1200.00 108 607 3.800 10000.000 0.000 0.923
31 93.00 1200.00 104 674 3.800 10000.000 0.000 0.923
32 96.00 1200.00 101 756 3.800 10000.000 0.000 0.923
33 99.00 1200.00 98 721 3.800 10000.000 0.000 0.923
34 102.00 1200.00 128 765 3.800 10000.000 0.000 0.923
35 105.00 1200.00 106 779 3.800 10000.000 0.000 0.923
36 108.00 1200.00 111 763 3.800 10000.000 0.000 0.923
37 111.00 1200.00 140 758 3.800 10000.000 0.000 0.923
38 114.00 1200.00 124 745 3.800 10000.000 0.000 0.923
39 117.00 1200.00 145 729 3.800 10000.000 0.000 0.923
40 120.00 1200.00 155 625 3.800 10000.000 0.000 0.923
41 123.00 1200.00 139 647 3.800 10000.000 0.000 0.923
42 126.00 1200.00 180 630 3.800 10000.000 0.000 0.923
43 129.00 1200.00 187 546 3.800 10000.000 0.000 0.923
44 132.00 1200.00 192 498 3.800 10000.000 0.000 0.923
45 135.00 1200.00 230 438 3.800 10000.000 0.000 0.923
46 138.00 1200.00 236 389 3.800 10000.000 0.000 0.923
47 141.00 1200.00 218 364 3.800 10000.000 0.000 0.923
48 144.00 1200.00 231 366 3.800 10000.000 0.000 0.923
49 147.00 1200.00 222 333 3.800 10000.000 0.000 0.923
50 150.00 1200.00 216 289 3.800 10000.000 0.000 0.923
51 153.00 1200.00 234 273 3.800 10000.000 0.000 0.923
52 156.00 1200.00 208 280 3.800 10000.000 0.000 0.923
53 159.00 1200.00 214 292 3.800 10000.000 0.000 0.923
54 162.00 1200.00 178 283 3.800 10000.000 0.000 0.923
55 165.00 1200.00 173 270 3.800 10000.000 0.000 0.923
56 168.00 1200.00 142 344 3.800 10000.000 0.000 0.923
57 171.00 1200.00 166 325 3.800 10000.000 0.000 0.923
58 174.00 1200.00 141 369 3.800 10000.000 0.000 0.923
59 177.00 1200.00 110 395 3.800 10000.000 0.000 0.923
60 180.00 1200.00 133 423 3.800 10000.000 0.000 0.923
61 183.00 1200.00 87 490 3.800 10000.000 0.000 0.923
62 186.00 1200.00 104 515 3.800 10000.000 0.000 0.923
63 189.00 1200.00 109 647 3.800 10000.000 0.000 0.923
64 192.00 1200.00 118 694 3.800 10000.000 0.000 0.923
65 195.00 1200.00 93 691 3.800 10000.000 0.000 0.923
66 198.00 1200.00 94 754 3.800 10000.000 0.000 0.923
67 201.00 1200.00 110 718 3.800 10000.000 0.000 0.923
68 204.00 1200.00 107 701 3.800 10000.000 0.000 0.923
69 207.00 1200.00 98 739 3.800 10000.000 0.000 0.923
70 210.00 1200.00 122 786 3.800 10000.000 0.000 0.923
71 213.00 1200.00 133 717 3.800 10000.000 0.000 0.923
72 216.00 1200.00 135 687 3.800 10000.000 0.000 0.923
73 219.00 1200.00 159 691 3.800 10000.000 0.000 0.923
74 222.00 1200.00 173 651 3.800 10000.000 0.000 0.923
75 225.00 1200.00 182 616 3.800 10000.000 0.000 0.923
76 228.00 1200.00 172 581 3.800 10000.000 0.000 0.923
77 231.00 1200.00 224 543 3.800 10000.000 0.000 0.923
78 234.00 1200.00 185 442 3.800 10000.000 0.000 0.923
79 237.00 1200.00 218 437 3.800 10000.000 0.000 0.923
80 240.00 1200.00 198 351 3.800 10000.000 0.000 0.923
81 243.00 1200.00 186 343 3.800 10000.000 0.000 0.923
82 246.00 1200.00 193 303 3.800 10000.000 0.000 0.923
83 249.00 1200.00 183 272 3.800 10000.000 0.000 0.923
84 252.00 1200.00 169 228 3.800 10000.000 0.000 0.923
85 255.00 1200.00 140 258 3.800 10000.000 0.000 0.923
86 258.00 1200.00 161 277 3.800 10000.000 0.000 0.923
87 261.00 1200.00 138 259 3.800 10000.000 0.000 0.923
88 264.00 1200.00 137 273 3.800 10000.000 0.000 0.923
89 267.00 1200.00 161 259 3.800 10000.000 0.000 0.923
90 270.00 1200.00 150 334 3.800 10000.000 0.000 0.923
91 273.00 1200.00 187 344 3.800 10000.000 0.000 0.923
92 276.00 1200.00 186 397 3.800 10000.000 0.000 0.923
93 279.00 1200.00 164 410 3.800 10000.000 0.000 0.923
94 282.00 1200.00 197 540 3.800 10000.000 0.000 0.923
95 285.00 1200.00 230 578 3.800 10000.000 0.000 0.923
96 288.00 1200.00 222 577 3.800 10000.000 0.000 0.923
97 291.00 1200.00 178 655 3.800 10000.000 0.000 0.923
98 294.00 1200.00 214 636 3.800 10000.000 0.000 0.923
99 297.00 1200.00 179 750 3.800 10000.000 0.000 0.923
100 300.00 1200.00 168 756 3.800 10000.000 0.000 0.923
101 303.00 1200.00 172 743 3.800 10000.000 0.000 0.923
102 306.00 1200.00 176 795 3.800 10000.000 0.000 0.923
103 309.00 1200.00 124 748 3.800 10000.000 0.000 0.923
104 312.00 1200.00 110 742 3.800 10000.000 0.000 0.923
105 315.00 1200.00 121 710 3.800 10000.000 0.000 0.923
106 318.00 1200.00 147 706 3.800 10000.000 0.000 0.923
107 321.00 1200.00 109 630 3.800 10000.000 0.000 0.923
108 324.00 1200.00 88 656 3.800 10000.000 0.000 0.923
109 327.00 1200.00 121 609 3.800 10000.000 0.000 0.923
110 330.00 1200.00 97 563 3.800 10000.000 0.000 0.923
111 333.00 1200.00 92 470 3.800 10000.000 0.000 0.923
112 336.00 1200.00 103 422 3.800 10000.000 0.000 0.923
113 339.00 1200.00 110 436 3.800 10000.000 0.000 0.923
114 342.00 1200.00 129 413 3.800 10000.000 0.000 0.923
115 345.00 1200.00 130 300 3.800 10000.000 0.000 0.923
116 348.00 1200.00 136 301 3.800 10000.000 0.000 0.923
117 351.00 1200.00 142 285 3.800 10000.000 0.000 0.923
118 354.00 1200.00 167 231 3.800 10000.000 0.000 0.923
119 357.00 1200.00 162 239 3.800 10000.000 0.000 0.923
120 360.00 1200.00 188 260 3.800 10000.000 0.000 0.923
121 363.00 1200.00 215 238 3.800 10000.000 0.000 0.923
122 366.00 1200.00 209 282 3.800 10000.000 0.000 0.923
123 369.00 1200.00 208 336 3.800 10000.000 0.000 0.923
124 372.00 1200.00 220 366 3.800 10000.000 0.000 0.923
125 375.00 1200.00 219 393 3.800 10000.000 0.000 0.923
126 378.00 1200.00 266 440 3.800 10000.000 0.000 0.923
127 381.00 1200.00 233 480 3.800 10000.000 0.000 0.923
128 384.00 1200.00 243 537 3.800 10000.000 0.000 0.923
129 387.00 1200.00 234 547 3.800 10000.000 0.000 0.923
130 390.00 1200.00 230 590 3.800 10000.000 0.000 0.923
131 393.00 1200.00 197 607 3.800 10000.000 0.000 0.923
132 396.00 1200.00 212 647 3.800 10000.000 0.000 0.923
133 399.00 1200.00 186 684 3.800 10000.000 0.000 0.923
134 402.00 1200.00 140 796 3.800 10000.000 0.000 0.923
135 405.00 1200.00 158 757 3.800 10000.000 0.000 0.923
136 408.00 1200.00 140 680 3.800 10000.000 0.000 0.923
137 411.00 1200.00 127 676 3.800 10000.000 0.000 0.923
138 414.00 1200.00 125 557 3.800 10000.000 0.000 0.923
139 417.00 1200.00 111 480 3.800 10000.000 0.000 0.923
140 420.00 1200.00 108 443 3.800 10000.000 0.000 0.923
141 423.00 1200.00 123 396 3.800 10000.000 0.000 0.923
