# BinNR microsec tot-time (s)  O-Beam AUX Ampl(V) f(Hz) phase(deg) chi(pos)
0 0.00 1200.01 143 272 2.200 10000.000 0.000 -0.143
1 3.00 1200.01 289 549 2.200 10000.000 0.000 -0.143
2 6.00 1200.01 290 518 2.200 10000.000 0.000 -0.143
3 9.00 1200.01 296 478 2.200 10000.000 0.000 -0.143
4 12.00 1200.01 273 464 2.200 10000.000 0.000 -0.143
5 15.00 1200.01 261 446 2.200 10000.000 0.000 -0.143
6 18.00 1200.01 269 417 2.200 10000.000 0.000 -0.143
7 21.00 1200.01 255 400 2.200 10000.000 0.000 -0.143
8 24.00 1200.01 252 448 2.200 10000.000 0.000 -0.143
9 27.00 1200.01 262 493 2.200 10000.000 0.000 -0.143
10 30.00 1200.01 236 562 2.200 10000.000 0.000 -0.143
11 33.00 1200.01 236 582 2.200 10000.000 0.000 -0.143
12 36.00 1200.01 235 617 2.200 10000.000 0.000 -0.143
13 39.00 1200.01 231 627 2.200 10000.000 0.000 -0.143
14 42.00 1200.01 241 640 2.200 10000.000 0.000 -0.143
15 45.00 1200.01 209 711 2.200 10000.000 0.000 -0.143
16 48.00 1200.01 230 750 2.200 10000.000 0.000 -0.143
17 51.00 1200.01 222 662 2.200 10000.000 0.000 -0.143
18 54.00 1200.01 221 744 2.200 10000.000 0.000 -0.143
19 57.00 1200.01 245 766 2.200 10000.000 0.000 -0.143
20 60.00 1200.01 249 712 2.200 10000.000 0.000 -0.143
21 63.00 1200.01 243 701 2.200 10000.000 0.000 -0.143
22 66.00 1200.01 262 663 2.200 10000.000 0.000 -0.143
23 69.00 1200.01 272 666 2.200 10000.000 0.000 -0.143
24 72.00 1200.01 281 686 2.200 10000.000 0.000 -0.143
25 75.00 1200.01 300 695 2.200 10000.000 0.000 -0.143
26 78.00 1200.01 279 598 2.200 10000.000 0.000 -0.143
27 81.00 1200.01 261 592 2.200 10000.000 0.000 -0.143
28 84.00 1200.01 300 548 2.200 10000.000 0.000 -0.143
29 87.00 1200.01 274 533 2.200 10000.000 0.000 -0.143
30 90.00 1200.01 277 498 2.200 10000.000 0.000 -0.143
31 93.00 1200.01 327 443 2.200 10000.000 0.000 -0.143
32 96.00 1200.01 316 447 2.200 10000.000 0.000 -0.143
33 99.00 1200.01 296 445 2.200 10000.000 0.000 -0.143
34 102.00 1200.01 308 412 2.200 10000.000 0.000 -0.143
35 105.00 1200.01 303 424 2.200 10000.000 0.000 -0.143
36 108.00 1200.01 283 429 2.200 10000.000 0.000 -0.143
37 111.00 1200.01 256 387 2.200 10000.000 0.000 -0.143
38 114.00 1200.01 277 436 2.200 10000.000 0.000 -0.143
39 117.00 1200.01 255 402 2.200 10000.000 0.000 -0.143
40 120.00 1200.01 270 467 2.200 10000.000 0.000 -0.143
41 123.00 1200.01 267 498 2.200 10000.000 0.000 -0.143
42 126.00 1200.01 236 511 2.200 10000.000 0.000 -0.143
43 129.00 1200.01 240 551 2.200 10000.000 0.000 -0.143
44 132.00 1200.01 237 519 2.200 10000.000 0.000 -0.143
45 135.00 1200.01 230 592 2.200 10000.000 0.000 -0.143
46 138.00 1200.01 213 636 2.200 10000.000 0.000 -0.143
47 141.00 1200.01 215 683 2.200 10000.000 0.000 -0.143
48 144.00 1200.01 230 653 2.200 10000.000 0.000 -0.143
49 147.00 1200.01 239 705 2.200 10000.000 0.000 -0.143
50 150.00 1200.01 243 687 2.200 10000.000 0.000 -0.143
51 153.00 1200.01 210 684 2.200 10000.000 0.000 -0.143
52 156.00 1200.01 210 708 2.200 10000.000 0.000 -0.143
53 159.00 1200.01 215 723 2.200 10000.000 0.000 -0.143
54 162.00 1200.01 228 715 2.200 10000.000 0.000 -0.143
55 165.00 1200.01 263 705 2.200 10000.000 0.000 -0.143
56 168.00 1200.01 247 689 2.200 10000.000 0.000 -0.143
57 171.00 1200.01 253 648 2.200 10000.000 0.000 -0.143
58 174.00 1200.01 254 660 2.200 10000.000 0.000 -0.143
59 177.00 1200.01 304 652 2.200 10000.000 0.000 -0.143
60 180.00 1200.01 273 594 2.200 10000.000 0.000 -0.143
61 183.00 1200.01 322 555 2.200 10000.000 0.000 -0.143
62 186.00 1200.01 278 506 2.200 10000.000 0.000 -0.143
63 189.00 1200.01 295 504 2.200 10000.000 0.000 -0.143
64 192.00 1200.01 295 464 2.200 10000.000 0.000 -0.143
65 195.00 1200.01 284 428 2.200 10000.000 0.000 -0.143
66 198.00 1200.01 293 461 2.200 10000.000 0.000 -0.143
67 201.00 1200.01 312 410 2.200 10000.000 0.000 -0.143
68 204.00 1200.01 324 398 2.200 10000.000 0.000 -0.143
69 207.00 1200.01 301 391 2.200 10000.000 0.000 -0.143
70 210.00 1200.01 292 438 2.200 10000.000 0.000 -0.143
71 213.00 1200.01 261 419 2.200 10000.000 0.000 -0.143
72 216.00 1200.01 244 452 2.200 10000.000 0.000 -0.143
73 219.00 1200.01 260 393 2.200 10000.000 0.000 -0.143
74 222.00 1200.01 256 473 2.200 10000.000 0.000 -0.143
75 225.00 1200.01 223 495 2.200 10000.000 0.000 -0.143
76 228.00 1200.01 251 507 2.200 10000.000 0.000 -0.143
77 231.00 1200.01 250 582 2.200 10000.000 0.000 -0.143
78 234.00 1200.01 262 548 2.200 10000.000 0.000 -0.143
79 237.00 1200.01 238 577 2.200 10000.000 0.000 -0.143
80 240.00 1200.01 236 670 2.200 10000.000 0.000 -0.143
81 243.00 1200.01 249 654 2.200 10000.000 0.000 -0.143
82 246.00 1200.01 242 673 2.200 10000.000 0.000 -0.143
83 249.00 1200.01 223 675 2.200 10000.000 0.000 -0.143
84 252.00 1200.01 246 674 2.200 10000.000 0.000 -0.143
85 255.00 1200.01 261 683 2.200 10000.000 0.000 -0.143
86 258.00 1200.01 288 742 2.200 10000.000 0.000 -0.143
87 261.00 1200.01 269 737 2.200 10000.000 0.000 -0.143
88 264.00 1200.01 261 726 2.200 10000.000 0.000 -0.143
89 267.00 1200.01 256 659 2.200 10000.000 0.000 -0.143
90 270.00 1200.01 255 720 2.200 10000.000 0.000 -0.143
91 273.00 1200.01 273 668 2.200 10000.000 0.000 -0.143
92 276.00 1200.01 221 613 2.200 10000.000 0.000 -0.143
93 279.00 1200.01 278 584 2.200 10000.000 0.000 -0.143
94 282.00 1200.01 243 557 2.200 10000.000 0.000 -0.143
95 285.00 1200.01 225 521 2.200 10000.000 0.000 -0.143
96 288.00 1200.01 238 515 2.200 10000.000 0.000 -0.143
97 291.00 1200.01 216 527 2.200 10000.000 0.000 -0.143
98 294.00 1200.01 229 485 2.200 10000.000 0.000 -0.143
99 297.00 1200.01 232 424 2.200 10000.000 0.000 -0.143
100 300.00 1200.01 257 426 2.200 10000.000 0.000 -0.143
101 303.00 1200.01 262 422 2.200 10000.000 0.000 -0.143
102 306.00 1200.01 264 403 2.200 10000.000 0.000 -0.143
103 309.00 1200.01 291 404 2.200 10000.000 0.000 -0.143
104 312.00 1200.01 292 444 2.200 10000.000 0.000 -0.143
105 315.00 1200.01 293 427 2.200 10000.000 0.000 -0.143
106 318.00 1200.01 318 409 2.200 10000.000 0.000 -0.143
107 321.00 1200.01 280 467 2.200 10000.000 0.000 -0.143
108 324.00 1200.01 300 504 2.200 10000.000 0.000 -0.143
109 327.00 1200.01 302 507 2.200 10000.000 0.000 -0.143
110 330.00 1200.01 292 536 2.200 10000.000 0.000 -0.143
111 333.00 1200.01 297 546 2.200 10000.000 0.000 -0.143
112 336.00 1200.01 269 562 2.200 10000.000 0.000 -0.143
113 339.00 1200.01 264 650 2.200 10000.000 0.000 -0.143
114 342.00 1200.01 274 631 2.200 10000.000 0.000 -0.143
115 345.00 1200.01 288 644 2.200 10000.000 0.000 -0.143
116 348.00 1200.01 264 715 2.200 10000.000 0.000 -0.143
117 351.00 1200.01 249 697 2.200 10000.000 0.000 -0.143
118 354.00 1200.01 273 699 2.200 10000.000 0.000 -0.143
119 357.00 1200.01 249 658 2.200 10000.000 0.000 -0.143
120 360.00 1200.01 256 750 2.200 10000.000 0.000 -0.143
121 363.00 1200.01 247 680 2.200 10000.000 0.000 -0.143
122 366.00 1200.01 248 691 2.200 10000.000 0.000 -0.143
123 369.00 1200.01 222 705 2.200 10000.000 0.000 -0.143
124 372.00 1200.01 257 661 2.200 10000.000 0.000 -0.143
125 375.00 1200.01 205 674 2.200 10000.000 0.000 -0.143
126 378.00 1200.01 232 648 2.200 10000.000 0.000 -0.143
127 381.00 1200.01 240 554 2.200 10000.000 0.000 -0.143
128 384.00 1200.01 221 556 2.200 10000.000 0.000 -0.143
129 387.00 1200.01 235 513 2.200 10000.000 0.000 -0.143
130 390.00 1200.01 228 501 2.200 10000.000 0.000 -0.143
131 393.00 1200.01 260 454 2.200 10000.000 0.000 -0.143
132 396.00 1200.01 274 416 2.200 10000.000 0.000 -0.143
133 399.00 1200.01 246 429 2.200 10000.000 0.000 -0.143
134 402.00 1200.01 269 439 2.200 10000.000 0.000 -0.143
135 405.00 1200.01 259 426 2.200 10000.000 0.000 -0.143
136 408.00 1200.01 292 477 2.200 10000.000 0.000 -0.143
137 411.00 1200.01 296 521 2.200 10000.000 0.000 -0.143
138 414.00 1200.01 309 501 2.200 10000.000 0.000 -0.143
139 417.00 1200.01 301 567 2.200 10000.000 0.000 -0.143
140 420.00 1200.01 320 581 2.200 10000.000 0.000 -0.143
141 423.00 1200.01 281 599 2.200 10000.000 0.000 -0.143
