# BinNR microsec tot-time (s)  O-Beam AUX Ampl_1(V) f_1(Hz) phase_1(deg) Ampl_2(V) f_2(Hz) phase_2(deg) chi(pos)
0 0.00 1500.00 603 2015 0.740 10000.000 0.000 0.000 0.000 0.000 -0.330
1 3.00 1500.00 1180 3941 0.740 10000.000 0.000 0.000 0.000 0.000 -0.330
2 6.00 1500.00 1233 3856 0.740 10000.000 0.000 0.000 0.000 0.000 -0.330
3 9.00 1500.00 1248 3966 0.740 10000.000 0.000 0.000 0.000 0.000 -0.330
4 12.00 1500.00 1222 3914 0.740 10000.000 0.000 0.000 0.000 0.000 -0.330
5 15.00 1500.00 1217 3890 0.740 10000.000 0.000 0.000 0.000 0.000 -0.330
6 18.00 1500.00 1186 3973 0.740 10000.000 0.000 0.000 0.000 0.000 -0.330
7 21.00 1500.00 1167 3990 0.740 10000.000 0.000 0.000 0.000 0.000 -0.330
8 24.00 1500.00 1148 3998 0.740 10000.000 0.000 0.000 0.000 0.000 -0.330
9 27.00 1500.00 1131 3806 0.740 10000.000 0.000 0.000 0.000 0.000 -0.330
10 30.00 1500.00 1245 3972 0.740 10000.000 0.000 0.000 0.000 0.000 -0.330
11 33.00 1500.00 1234 3972 0.740 10000.000 0.000 0.000 0.000 0.000 -0.330
12 36.00 1500.00 1198 3961 0.740 10000.000 0.000 0.000 0.000 0.000 -0.330
13 39.00 1500.00 1202 4029 0.740 10000.000 0.000 0.000 0.000 0.000 -0.330
14 42.00 1500.00 1169 3978 0.740 10000.000 0.000 0.000 0.000 0.000 -0.330
15 45.00 1500.00 1250 4098 0.740 10000.000 0.000 0.000 0.000 0.000 -0.330
16 48.00 1500.00 1234 4068 0.740 10000.000 0.000 0.000 0.000 0.000 -0.330
17 51.00 1500.00 1126 3873 0.740 10000.000 0.000 0.000 0.000 0.000 -0.330
18 54.00 1500.00 1211 3941 0.740 10000.000 0.000 0.000 0.000 0.000 -0.330
19 57.00 1500.00 1171 3871 0.740 10000.000 0.000 0.000 0.000 0.000 -0.330
20 60.00 1500.00 1245 3903 0.740 10000.000 0.000 0.000 0.000 0.000 -0.330
21 63.00 1500.00 1166 4002 0.740 10000.000 0.000 0.000 0.000 0.000 -0.330
22 66.00 1500.00 1232 3997 0.740 10000.000 0.000 0.000 0.000 0.000 -0.330
23 69.00 1500.00 1210 3857 0.740 10000.000 0.000 0.000 0.000 0.000 -0.330
24 72.00 1500.00 1173 4022 0.740 10000.000 0.000 0.000 0.000 0.000 -0.330
25 75.00 1500.00 1210 3942 0.740 10000.000 0.000 0.000 0.000 0.000 -0.330
26 78.00 1500.00 1210 4032 0.740 10000.000 0.000 0.000 0.000 0.000 -0.330
27 81.00 1500.00 1184 4031 0.740 10000.000 0.000 0.000 0.000 0.000 -0.330
28 84.00 1500.00 1258 4014 0.740 10000.000 0.000 0.000 0.000 0.000 -0.330
29 87.00 1500.00 1190 3899 0.740 10000.000 0.000 0.000 0.000 0.000 -0.330
30 90.00 1500.00 1222 3955 0.740 10000.000 0.000 0.000 0.000 0.000 -0.330
31 93.00 1500.00 1136 3869 0.740 10000.000 0.000 0.000 0.000 0.000 -0.330
32 96.00 1500.00 1170 3895 0.740 10000.000 0.000 0.000 0.000 0.000 -0.330
33 99.00 1500.00 1163 3864 0.740 10000.000 0.000 0.000 0.000 0.000 -0.330
34 102.00 1500.00 1169 3857 0.740 10000.000 0.000 0.000 0.000 0.000 -0.330
35 105.00 1500.00 1231 3980 0.740 10000.000 0.000 0.000 0.000 0.000 -0.330
36 108.00 1500.00 1264 4035 0.740 10000.000 0.000 0.000 0.000 0.000 -0.330
37 111.00 1500.00 1248 4045 0.740 10000.000 0.000 0.000 0.000 0.000 -0.330
38 114.00 1500.00 1203 4060 0.740 10000.000 0.000 0.000 0.000 0.000 -0.330
39 117.00 1500.00 1187 3943 0.740 10000.000 0.000 0.000 0.000 0.000 -0.330
40 120.00 1500.00 1213 4029 0.740 10000.000 0.000 0.000 0.000 0.000 -0.330
41 123.00 1500.00 1165 3918 0.740 10000.000 0.000 0.000 0.000 0.000 -0.330
42 126.00 1500.00 1228 4013 0.740 10000.000 0.000 0.000 0.000 0.000 -0.330
43 129.00 1500.00 1150 3938 0.740 10000.000 0.000 0.000 0.000 0.000 -0.330
44 132.00 1500.00 1173 3950 0.740 10000.000 0.000 0.000 0.000 0.000 -0.330
45 135.00 1500.00 1216 3991 0.740 10000.000 0.000 0.000 0.000 0.000 -0.330
46 138.00 1500.00 1252 3953 0.740 10000.000 0.000 0.000 0.000 0.000 -0.330
47 141.00 1500.00 1180 3787 0.740 10000.000 0.000 0.000 0.000 0.000 -0.330
48 144.00 1500.00 1260 3920 0.740 10000.000 0.000 0.000 0.000 0.000 -0.330
49 147.00 1500.00 1191 3834 0.740 10000.000 0.000 0.000 0.000 0.000 -0.330
50 150.00 1500.00 1208 3844 0.740 10000.000 0.000 0.000 0.000 0.000 -0.330
51 153.00 1500.00 1198 3775 0.740 10000.000 0.000 0.000 0.000 0.000 -0.330
52 156.00 1500.00 1220 3910 0.740 10000.000 0.000 0.000 0.000 0.000 -0.330
53 159.00 1500.00 1229 3905 0.740 10000.000 0.000 0.000 0.000 0.000 -0.330
54 162.00 1500.00 1219 4074 0.740 10000.000 0.000 0.000 0.000 0.000 -0.330
55 165.00 1500.00 1150 4026 0.740 10000.000 0.000 0.000 0.000 0.000 -0.330
56 168.00 1500.00 1210 3989 0.740 10000.000 0.000 0.000 0.000 0.000 -0.330
57 171.00 1500.00 1177 3998 0.740 10000.000 0.000 0.000 0.000 0.000 -0.330
58 174.00 1500.00 1234 4069 0.740 10000.000 0.000 0.000 0.000 0.000 -0.330
59 177.00 1500.00 1214 3886 0.740 10000.000 0.000 0.000 0.000 0.000 -0.330
60 180.00 1500.00 1199 4043 0.740 10000.000 0.000 0.000 0.000 0.000 -0.330
61 183.00 1500.00 1208 3978 0.740 10000.000 0.000 0.000 0.000 0.000 -0.330
62 186.00 1500.00 1172 3948 0.740 10000.000 0.000 0.000 0.000 0.000 -0.330
63 189.00 1500.00 1181 3976 0.740 10000.000 0.000 0.000 0.000 0.000 -0.330
64 192.00 1500.00 1247 4029 0.740 10000.000 0.000 0.000 0.000 0.000 -0.330
65 195.00 1500.00 1203 3852 0.740 10000.000 0.000 0.000 0.000 0.000 -0.330
66 198.00 1500.00 1174 4043 0.740 10000.000 0.000 0.000 0.000 0.000 -0.330
67 201.00 1500.00 1187 3914 0.740 10000.000 0.000 0.000 0.000 0.000 -0.330
68 204.00 1500.00 1162 3961 0.740 10000.000 0.000 0.000 0.000 0.000 -0.330
69 207.00 1500.00 1198 3908 0.740 10000.000 0.000 0.000 0.000 0.000 -0.330
70 210.00 1500.00 1195 3971 0.740 10000.000 0.000 0.000 0.000 0.000 -0.330
71 213.00 1500.00 1184 3901 0.740 10000.000 0.000 0.000 0.000 0.000 -0.330
72 216.00 1500.00 1178 3989 0.740 10000.000 0.000 0.000 0.000 0.000 -0.330
73 219.00 1500.00 1193 3947 0.740 10000.000 0.000 0.000 0.000 0.000 -0.330
74 222.00 1500.00 1201 4064 0.740 10000.000 0.000 0.000 0.000 0.000 -0.330
75 225.00 1500.00 1180 3962 0.740 10000.000 0.000 0.000 0.000 0.000 -0.330
76 228.00 1500.00 1244 4007 0.740 10000.000 0.000 0.000 0.000 0.000 -0.330
77 231.00 1500.00 1197 3824 0.740 10000.000 0.000 0.000 0.000 0.000 -0.330
78 234.00 1500.00 1196 3984 0.740 10000.000 0.000 0.000 0.000 0.000 -0.330
79 237.00 1500.00 1192 3898 0.740 10000.000 0.000 0.000 0.000 0.000 -0.330
80 240.00 1500.00 1205 3904 0.740 10000.000 0.000 0.000 0.000 0.000 -0.330
81 243.00 1500.00 1247 3896 0.740 10000.000 0.000 0.000 0.000 0.000 -0.330
82 246.00 1500.00 1218 3790 0.740 10000.000 0.000 0.000 0.000 0.000 -0.330
83 249.00 1500.00 1228 3918 0.740 10000.000 0.000 0.000 0.000 0.000 -0.330
84 252.00 1500.00 1195 3946 0.740 10000.000 0.000 0.000 0.000 0.000 -0.330
85 255.00 1500.00 1278 3826 0.740 10000.000 0.000 0.000 0.000 0.000 -0.330
86 258.00 1500.00 1259 3913 0.740 10000.000 0.000 0.000 0.000 0.000 -0.330
87 261.00 1500.00 1258 3931 0.740 10000.000 0.000 0.000 0.000 0.000 -0.330
88 264.00 1500.00 1204 3966 0.740 10000.000 0.000 0.000 0.000 0.000 -0.330
89 267.00 1500.00 1181 3895 0.740 10000.000 0.000 0.000 0.000 0.000 -0.330
90 270.00 1500.00 1187 4064 0.740 10000.000 0.000 0.000 0.000 0.000 -0.330
91 273.00 1500.00 1168 3992 0.740 10000.000 0.000 0.000 0.000 0.000 -0.330
92 276.00 1500.00 1246 3976 0.740 10000.000 0.000 0.000 0.000 0.000 -0.330
93 279.00 1500.00 1192 4035 0.740 10000.000 0.000 0.000 0.000 0.000 -0.330
94 282.00 1500.00 1229 3999 0.740 10000.000 0.000 0.000 0.000 0.000 -0.330
95 285.00 1500.00 1226 3988 0.740 10000.000 0.000 0.000 0.000 0.000 -0.330
96 288.00 1500.00 1269 4003 0.740 10000.000 0.000 0.000 0.000 0.000 -0.330
97 291.00 1500.00 1130 3888 0.740 10000.000 0.000 0.000 0.000 0.000 -0.330
98 294.00 1500.00 1182 3886 0.740 10000.000 0.000 0.000 0.000 0.000 -0.330
99 297.00 1500.00 1183 3825 0.740 10000.000 0.000 0.000 0.000 0.000 -0.330
100 300.00 1500.00 1247 3850 0.740 10000.000 0.000 0.000 0.000 0.000 -0.330
101 303.00 1500.00 1198 3845 0.740 10000.000 0.000 0.000 0.000 0.000 -0.330
102 306.00 1500.00 1136 3972 0.740 10000.000 0.000 0.000 0.000 0.000 -0.330
103 309.00 1500.00 1186 3984 0.740 10000.000 0.000 0.000 0.000 0.000 -0.330
104 312.00 1500.00 1204 3954 0.740 10000.000 0.000 0.000 0.000 0.000 -0.330
105 315.00 1500.00 1178 3995 0.740 10000.000 0.000 0.000 0.000 0.000 -0.330
106 318.00 1500.00 1211 4092 0.740 10000.000 0.000 0.000 0.000 0.000 -0.330
107 321.00 1500.00 1189 4022 0.740 10000.000 0.000 0.000 0.000 0.000 -0.330
108 324.00 1500.00 1266 3988 0.740 10000.000 0.000 0.000 0.000 0.000 -0.330
109 327.00 1500.00 1185 3934 0.740 10000.000 0.000 0.000 0.000 0.000 -0.330
110 330.00 1500.00 1211 4020 0.740 10000.000 0.000 0.000 0.000 0.000 -0.330
111 333.00 1500.00 1192 3891 0.740 10000.000 0.000 0.000 0.000 0.000 -0.330
112 336.00 1500.00 1237 3911 0.740 10000.000 0.000 0.000 0.000 0.000 -0.330
113 339.00 1500.00 1141 3961 0.740 10000.000 0.000 0.000 0.000 0.000 -0.330
114 342.00 1500.00 1225 3988 0.740 10000.000 0.000 0.000 0.000 0.000 -0.330
115 345.00 1500.00 1169 3686 0.740 10000.000 0.000 0.000 0.000 0.000 -0.330
116 348.00 1500.00 1245 3922 0.740 10000.000 0.000 0.000 0.000 0.000 -0.330
117 351.00 1500.00 1201 3958 0.740 10000.000 0.000 0.000 0.000 0.000 -0.330
118 354.00 1500.00 1279 3947 0.740 10000.000 0.000 0.000 0.000 0.000 -0.330
119 357.00 1500.00 1232 3871 0.740 10000.000 0.000 0.000 0.000 0.000 -0.330
120 360.00 1500.00 1200 3845 0.740 10000.000 0.000 0.000 0.000 0.000 -0.330
121 363.00 1500.00 1203 3905 0.740 10000.000 0.000 0.000 0.000 0.000 -0.330
122 366.00 1500.00 1177 3933 0.740 10000.000 0.000 0.000 0.000 0.000 -0.330
123 369.00 1500.00 1224 4017 0.740 10000.000 0.000 0.000 0.000 0.000 -0.330
124 372.00 1500.00 1171 4151 0.740 10000.000 0.000 0.000 0.000 0.000 -0.330
125 375.00 1500.00 1253 3995 0.740 10000.000 0.000 0.000 0.000 0.000 -0.330
126 378.00 1500.00 1249 4153 0.740 10000.000 0.000 0.000 0.000 0.000 -0.330
127 381.00 1500.00 1204 3943 0.740 10000.000 0.000 0.000 0.000 0.000 -0.330
128 384.00 1500.00 1197 4107 0.740 10000.000 0.000 0.000 0.000 0.000 -0.330
129 387.00 1500.00 1199 4036 0.740 10000.000 0.000 0.000 0.000 0.000 -0.330
130 390.00 1500.00 1246 4080 0.740 10000.000 0.000 0.000 0.000 0.000 -0.330
131 393.00 1500.00 1221 3907 0.740 10000.000 0.000 0.000 0.000 0.000 -0.330
132 396.00 1500.00 1215 4030 0.740 10000.000 0.000 0.000 0.000 0.000 -0.330
133 399.00 1500.00 1155 3945 0.740 10000.000 0.000 0.000 0.000 0.000 -0.330
134 402.00 1500.00 1219 4055 0.740 10000.000 0.000 0.000 0.000 0.000 -0.330
135 405.00 1500.00 1092 3810 0.740 10000.000 0.000 0.000 0.000 0.000 -0.330
136 408.00 1500.00 1243 4018 0.740 10000.000 0.000 0.000 0.000 0.000 -0.330
137 411.00 1500.00 1209 3932 0.740 10000.000 0.000 0.000 0.000 0.000 -0.330
138 414.00 1500.00 1242 4211 0.740 10000.000 0.000 0.000 0.000 0.000 -0.330
139 417.00 1500.00 1137 4004 0.740 10000.000 0.000 0.000 0.000 0.000 -0.330
140 420.00 1500.00 1135 3941 0.740 10000.000 0.000 0.000 0.000 0.000 -0.330
141 423.00 1500.00 1260 4049 0.740 10000.000 0.000 0.000 0.000 0.000 -0.330
142 426.00 1500.00 1180 4058 0.740 10000.000 0.000 0.000 0.000 0.000 -0.330
143 429.00 1500.00 1218 3851 0.740 10000.000 0.000 0.000 0.000 0.000 -0.330
144 432.00 1500.00 1155 3940 0.740 10000.000 0.000 0.000 0.000 0.000 -0.330
