# BinNR microsec tot-time (s)  O-Beam AUX Ampl_1(V) f_1(Hz) phase_1(deg) Ampl_2(V) f_2(Hz) phase_2(deg) chi(pos)
0 0.00 1500.00 439 1421 0.740 10000.000 0.000 0.000 0.000 0.000 -0.670
1 3.00 1500.00 830 2715 0.740 10000.000 0.000 0.000 0.000 0.000 -0.670
2 6.00 1500.00 846 2809 0.740 10000.000 0.000 0.000 0.000 0.000 -0.670
3 9.00 1500.00 827 2810 0.740 10000.000 0.000 0.000 0.000 0.000 -0.670
4 12.00 1500.00 874 2903 0.740 10000.000 0.000 0.000 0.000 0.000 -0.670
5 15.00 1500.00 819 2808 0.740 10000.000 0.000 0.000 0.000 0.000 -0.670
6 18.00 1500.00 812 2892 0.740 10000.000 0.000 0.000 0.000 0.000 -0.670
7 21.00 1500.00 861 2825 0.740 10000.000 0.000 0.000 0.000 0.000 -0.670
8 24.00 1500.00 794 2865 0.740 10000.000 0.000 0.000 0.000 0.000 -0.670
9 27.00 1500.00 838 2786 0.740 10000.000 0.000 0.000 0.000 0.000 -0.670
10 30.00 1500.00 819 2900 0.740 10000.000 0.000 0.000 0.000 0.000 -0.670
11 33.00 1500.00 787 2686 0.740 10000.000 0.000 0.000 0.000 0.000 -0.670
12 36.00 1500.00 892 2917 0.740 10000.000 0.000 0.000 0.000 0.000 -0.670
13 39.00 1500.00 804 2761 0.740 10000.000 0.000 0.000 0.000 0.000 -0.670
14 42.00 1500.00 868 2897 0.740 10000.000 0.000 0.000 0.000 0.000 -0.670
15 45.00 1500.00 864 2709 0.740 10000.000 0.000 0.000 0.000 0.000 -0.670
16 48.00 1500.00 886 2787 0.740 10000.000 0.000 0.000 0.000 0.000 -0.670
17 51.00 1500.00 843 2874 0.740 10000.000 0.000 0.000 0.000 0.000 -0.670
18 54.00 1500.00 807 2837 0.740 10000.000 0.000 0.000 0.000 0.000 -0.670
19 57.00 1500.00 859 2780 0.740 10000.000 0.000 0.000 0.000 0.000 -0.670
20 60.00 1500.00 872 2793 0.740 10000.000 0.000 0.000 0.000 0.000 -0.670
21 63.00 1500.00 855 2704 0.740 10000.000 0.000 0.000 0.000 0.000 -0.670
22 66.00 1500.00 816 2823 0.740 10000.000 0.000 0.000 0.000 0.000 -0.670
23 69.00 1500.00 792 2748 0.740 10000.000 0.000 0.000 0.000 0.000 -0.670
24 72.00 1500.00 861 2850 0.740 10000.000 0.000 0.000 0.000 0.000 -0.670
25 75.00 1500.00 789 2782 0.740 10000.000 0.000 0.000 0.000 0.000 -0.670
26 78.00 1500.00 861 2926 0.740 10000.000 0.000 0.000 0.000 0.000 -0.670
27 81.00 1500.00 831 2719 0.740 10000.000 0.000 0.000 0.000 0.000 -0.670
28 84.00 1500.00 806 2847 0.740 10000.000 0.000 0.000 0.000 0.000 -0.670
29 87.00 1500.00 836 2751 0.740 10000.000 0.000 0.000 0.000 0.000 -0.670
30 90.00 1500.00 834 2911 0.740 10000.000 0.000 0.000 0.000 0.000 -0.670
31 93.00 1500.00 864 2703 0.740 10000.000 0.000 0.000 0.000 0.000 -0.670
32 96.00 1500.00 865 2963 0.740 10000.000 0.000 0.000 0.000 0.000 -0.670
33 99.00 1500.00 832 2721 0.740 10000.000 0.000 0.000 0.000 0.000 -0.670
34 102.00 1500.00 812 2948 0.740 10000.000 0.000 0.000 0.000 0.000 -0.670
35 105.00 1500.00 834 2776 0.740 10000.000 0.000 0.000 0.000 0.000 -0.670
36 108.00 1500.00 793 2836 0.740 10000.000 0.000 0.000 0.000 0.000 -0.670
37 111.00 1500.00 827 2769 0.740 10000.000 0.000 0.000 0.000 0.000 -0.670
38 114.00 1500.00 873 2868 0.740 10000.000 0.000 0.000 0.000 0.000 -0.670
39 117.00 1500.00 816 2778 0.740 10000.000 0.000 0.000 0.000 0.000 -0.670
40 120.00 1500.00 845 2873 0.740 10000.000 0.000 0.000 0.000 0.000 -0.670
41 123.00 1500.00 882 2741 0.740 10000.000 0.000 0.000 0.000 0.000 -0.670
42 126.00 1500.00 872 2899 0.740 10000.000 0.000 0.000 0.000 0.000 -0.670
43 129.00 1500.00 821 2860 0.740 10000.000 0.000 0.000 0.000 0.000 -0.670
44 132.00 1500.00 835 2802 0.740 10000.000 0.000 0.000 0.000 0.000 -0.670
45 135.00 1500.00 833 2767 0.740 10000.000 0.000 0.000 0.000 0.000 -0.670
46 138.00 1500.00 811 2806 0.740 10000.000 0.000 0.000 0.000 0.000 -0.670
47 141.00 1500.00 801 2765 0.740 10000.000 0.000 0.000 0.000 0.000 -0.670
48 144.00 1500.00 831 2829 0.740 10000.000 0.000 0.000 0.000 0.000 -0.670
49 147.00 1500.00 845 2756 0.740 10000.000 0.000 0.000 0.000 0.000 -0.670
50 150.00 1500.00 864 2901 0.740 10000.000 0.000 0.000 0.000 0.000 -0.670
51 153.00 1500.00 861 2838 0.740 10000.000 0.000 0.000 0.000 0.000 -0.670
52 156.00 1500.00 852 2790 0.740 10000.000 0.000 0.000 0.000 0.000 -0.670
53 159.00 1500.00 851 2740 0.740 10000.000 0.000 0.000 0.000 0.000 -0.670
54 162.00 1500.00 865 2730 0.740 10000.000 0.000 0.000 0.000 0.000 -0.670
55 165.00 1500.00 844 2755 0.740 10000.000 0.000 0.000 0.000 0.000 -0.670
56 168.00 1500.00 822 2858 0.740 10000.000 0.000 0.000 0.000 0.000 -0.670
57 171.00 1500.00 817 2831 0.740 10000.000 0.000 0.000 0.000 0.000 -0.670
58 174.00 1500.00 848 2859 0.740 10000.000 0.000 0.000 0.000 0.000 -0.670
59 177.00 1500.00 856 2857 0.740 10000.000 0.000 0.000 0.000 0.000 -0.670
60 180.00 1500.00 840 2834 0.740 10000.000 0.000 0.000 0.000 0.000 -0.670
61 183.00 1500.00 854 2754 0.740 10000.000 0.000 0.000 0.000 0.000 -0.670
62 186.00 1500.00 829 2813 0.740 10000.000 0.000 0.000 0.000 0.000 -0.670
63 189.00 1500.00 805 2808 0.740 10000.000 0.000 0.000 0.000 0.000 -0.670
64 192.00 1500.00 878 2764 0.740 10000.000 0.000 0.000 0.000 0.000 -0.670
65 195.00 1500.00 825 2793 0.740 10000.000 0.000 0.000 0.000 0.000 -0.670
66 198.00 1500.00 838 2977 0.740 10000.000 0.000 0.000 0.000 0.000 -0.670
67 201.00 1500.00 859 2759 0.740 10000.000 0.000 0.000 0.000 0.000 -0.670
68 204.00 1500.00 823 2763 0.740 10000.000 0.000 0.000 0.000 0.000 -0.670
69 207.00 1500.00 763 2835 0.740 10000.000 0.000 0.000 0.000 0.000 -0.670
70 210.00 1500.00 838 2939 0.740 10000.000 0.000 0.000 0.000 0.000 -0.670
71 213.00 1500.00 838 2810 0.740 10000.000 0.000 0.000 0.000 0.000 -0.670
72 216.00 1500.00 816 2843 0.740 10000.000 0.000 0.000 0.000 0.000 -0.670
73 219.00 1500.00 844 2968 0.740 10000.000 0.000 0.000 0.000 0.000 -0.670
74 222.00 1500.00 803 2952 0.740 10000.000 0.000 0.000 0.000 0.000 -0.670
75 225.00 1500.00 831 2822 0.740 10000.000 0.000 0.000 0.000 0.000 -0.670
76 228.00 1500.00 864 2876 0.740 10000.000 0.000 0.000 0.000 0.000 -0.670
77 231.00 1500.00 788 2832 0.740 10000.000 0.000 0.000 0.000 0.000 -0.670
78 234.00 1500.00 910 2834 0.740 10000.000 0.000 0.000 0.000 0.000 -0.670
79 237.00 1500.00 828 2761 0.740 10000.000 0.000 0.000 0.000 0.000 -0.670
80 240.00 1500.00 841 2808 0.740 10000.000 0.000 0.000 0.000 0.000 -0.670
81 243.00 1500.00 818 2798 0.740 10000.000 0.000 0.000 0.000 0.000 -0.670
82 246.00 1500.00 898 2841 0.740 10000.000 0.000 0.000 0.000 0.000 -0.670
83 249.00 1500.00 878 2777 0.740 10000.000 0.000 0.000 0.000 0.000 -0.670
84 252.00 1500.00 859 2921 0.740 10000.000 0.000 0.000 0.000 0.000 -0.670
85 255.00 1500.00 857 2736 0.740 10000.000 0.000 0.000 0.000 0.000 -0.670
86 258.00 1500.00 821 2779 0.740 10000.000 0.000 0.000 0.000 0.000 -0.670
87 261.00 1500.00 841 2760 0.740 10000.000 0.000 0.000 0.000 0.000 -0.670
88 264.00 1500.00 828 2730 0.740 10000.000 0.000 0.000 0.000 0.000 -0.670
89 267.00 1500.00 794 2836 0.740 10000.000 0.000 0.000 0.000 0.000 -0.670
90 270.00 1500.00 812 2878 0.740 10000.000 0.000 0.000 0.000 0.000 -0.670
91 273.00 1500.00 820 2804 0.740 10000.000 0.000 0.000 0.000 0.000 -0.670
92 276.00 1500.00 854 2931 0.740 10000.000 0.000 0.000 0.000 0.000 -0.670
93 279.00 1500.00 841 2846 0.740 10000.000 0.000 0.000 0.000 0.000 -0.670
94 282.00 1500.00 854 2868 0.740 10000.000 0.000 0.000 0.000 0.000 -0.670
95 285.00 1500.00 799 2925 0.740 10000.000 0.000 0.000 0.000 0.000 -0.670
96 288.00 1500.00 829 2863 0.740 10000.000 0.000 0.000 0.000 0.000 -0.670
97 291.00 1500.00 779 2774 0.740 10000.000 0.000 0.000 0.000 0.000 -0.670
98 294.00 1500.00 772 2831 0.740 10000.000 0.000 0.000 0.000 0.000 -0.670
99 297.00 1500.00 880 2851 0.740 10000.000 0.000 0.000 0.000 0.000 -0.670
100 300.00 1500.00 867 2797 0.740 10000.000 0.000 0.000 0.000 0.000 -0.670
101 303.00 1500.00 818 2782 0.740 10000.000 0.000 0.000 0.000 0.000 -0.670
102 306.00 1500.00 888 2798 0.740 10000.000 0.000 0.000 0.000 0.000 -0.670
103 309.00 1500.00 934 2747 0.740 10000.000 0.000 0.000 0.000 0.000 -0.670
104 312.00 1500.00 841 2852 0.740 10000.000 0.000 0.000 0.000 0.000 -0.670
105 315.00 1500.00 834 2815 0.740 10000.000 0.000 0.000 0.000 0.000 -0.670
106 318.00 1500.00 782 2862 0.740 10000.000 0.000 0.000 0.000 0.000 -0.670
107 321.00 1500.00 808 2930 0.740 10000.000 0.000 0.000 0.000 0.000 -0.670
108 324.00 1500.00 876 2823 0.740 10000.000 0.000 0.000 0.000 0.000 -0.670
109 327.00 1500.00 830 2828 0.740 10000.000 0.000 0.000 0.000 0.000 -0.670
110 330.00 1500.00 820 2896 0.740 10000.000 0.000 0.000 0.000 0.000 -0.670
111 333.00 1500.00 866 2721 0.740 10000.000 0.000 0.000 0.000 0.000 -0.670
112 336.00 1500.00 824 2900 0.740 10000.000 0.000 0.000 0.000 0.000 -0.670
113 339.00 1500.00 823 2743 0.740 10000.000 0.000 0.000 0.000 0.000 -0.670
114 342.00 1500.00 847 2659 0.740 10000.000 0.000 0.000 0.000 0.000 -0.670
115 345.00 1500.00 822 2765 0.740 10000.000 0.000 0.000 0.000 0.000 -0.670
116 348.00 1500.00 870 2851 0.740 10000.000 0.000 0.000 0.000 0.000 -0.670
117 351.00 1500.00 817 2789 0.740 10000.000 0.000 0.000 0.000 0.000 -0.670
118 354.00 1500.00 842 2934 0.740 10000.000 0.000 0.000 0.000 0.000 -0.670
119 357.00 1500.00 864 2725 0.740 10000.000 0.000 0.000 0.000 0.000 -0.670
120 360.00 1500.00 830 2799 0.740 10000.000 0.000 0.000 0.000 0.000 -0.670
121 363.00 1500.00 855 2778 0.740 10000.000 0.000 0.000 0.000 0.000 -0.670
122 366.00 1500.00 820 2807 0.740 10000.000 0.000 0.000 0.000 0.000 -0.670
123 369.00 1500.00 813 2645 0.740 10000.000 0.000 0.000 0.000 0.000 -0.670
124 372.00 1500.00 885 2828 0.740 10000.000 0.000 0.000 0.000 0.000 -0.670
125 375.00 1500.00 851 2773 0.740 10000.000 0.000 0.000 0.000 0.000 -0.670
126 378.00 1500.00 913 2862 0.740 10000.000 0.000 0.000 0.000 0.000 -0.670
127 381.00 1500.00 856 2707 0.740 10000.000 0.000 0.000 0.000 0.000 -0.670
128 384.00 1500.00 778 2849 0.740 10000.000 0.000 0.000 0.000 0.000 -0.670
129 387.00 1500.00 781 2820 0.740 10000.000 0.000 0.000 0.000 0.000 -0.670
130 390.00 1500.00 804 2737 0.740 10000.000 0.000 0.000 0.000 0.000 -0.670
131 393.00 1500.00 797 2764 0.740 10000.000 0.000 0.000 0.000 0.000 -0.670
132 396.00 1500.00 891 2807 0.740 10000.000 0.000 0.000 0.000 0.000 -0.670
133 399.00 1500.00 909 2793 0.740 10000.000 0.000 0.000 0.000 0.000 -0.670
134 402.00 1500.00 831 2842 0.740 10000.000 0.000 0.000 0.000 0.000 -0.670
135 405.00 1500.00 820 2753 0.740 10000.000 0.000 0.000 0.000 0.000 -0.670
136 408.00 1500.00 909 2768 0.740 10000.000 0.000 0.000 0.000 0.000 -0.670
137 411.00 1500.00 841 2839 0.740 10000.000 0.000 0.000 0.000 0.000 -0.670
138 414.00 1500.00 810 2881 0.740 10000.000 0.000 0.000 0.000 0.000 -0.670
139 417.00 1500.00 784 2843 0.740 10000.000 0.000 0.000 0.000 0.000 -0.670
140 420.00 1500.00 852 2858 0.740 10000.000 0.000 0.000 0.000 0.000 -0.670
141 423.00 1500.00 824 2800 0.740 10000.000 0.000 0.000 0.000 0.000 -0.670
142 426.00 1500.00 861 2848 0.740 10000.000 0.000 0.000 0.000 0.000 -0.670
143 429.00 1500.00 852 2929 0.740 10000.000 0.000 0.000 0.000 0.000 -0.670
144 432.00 1500.00 857 2800 0.740 10000.000 0.000 0.000 0.000 0.000 -0.670
