# BinNR microsec tot-time (s)  O-Beam AUX Ampl_1(V) f_1(Hz) phase_1(deg) Ampl_2(V) f_2(Hz) phase_2(deg) chi(pos)
0 0.00 1500.00 230 394 0.740 10000.000 0.000 0.000 0.000 0.000 0.835
1 3.00 1500.00 499 779 0.740 10000.000 0.000 0.000 0.000 0.000 0.835
2 6.00 1500.00 434 813 0.740 10000.000 0.000 0.000 0.000 0.000 0.835
3 9.00 1500.00 463 795 0.740 10000.000 0.000 0.000 0.000 0.000 0.835
4 12.00 1500.00 474 780 0.740 10000.000 0.000 0.000 0.000 0.000 0.835
5 15.00 1500.00 428 763 0.740 10000.000 0.000 0.000 0.000 0.000 0.835
6 18.00 1500.00 466 816 0.740 10000.000 0.000 0.000 0.000 0.000 0.835
7 21.00 1500.00 499 754 0.740 10000.000 0.000 0.000 0.000 0.000 0.835
8 24.00 1500.00 444 761 0.740 10000.000 0.000 0.000 0.000 0.000 0.835
9 27.00 1500.00 458 709 0.740 10000.000 0.000 0.000 0.000 0.000 0.835
10 30.00 1500.00 400 661 0.740 10000.000 0.000 0.000 0.000 0.000 0.835
11 33.00 1500.00 411 716 0.740 10000.000 0.000 0.000 0.000 0.000 0.835
12 36.00 1500.00 439 717 0.740 10000.000 0.000 0.000 0.000 0.000 0.835
13 39.00 1500.00 440 737 0.740 10000.000 0.000 0.000 0.000 0.000 0.835
14 42.00 1500.00 452 747 0.740 10000.000 0.000 0.000 0.000 0.000 0.835
15 45.00 1500.00 437 750 0.740 10000.000 0.000 0.000 0.000 0.000 0.835
16 48.00 1500.00 456 715 0.740 10000.000 0.000 0.000 0.000 0.000 0.835
17 51.00 1500.00 442 781 0.740 10000.000 0.000 0.000 0.000 0.000 0.835
18 54.00 1500.00 417 810 0.740 10000.000 0.000 0.000 0.000 0.000 0.835
19 57.00 1500.00 458 849 0.740 10000.000 0.000 0.000 0.000 0.000 0.835
20 60.00 1500.00 444 773 0.740 10000.000 0.000 0.000 0.000 0.000 0.835
21 63.00 1500.00 444 833 0.740 10000.000 0.000 0.000 0.000 0.000 0.835
22 66.00 1500.00 427 746 0.740 10000.000 0.000 0.000 0.000 0.000 0.835
23 69.00 1500.00 398 711 0.740 10000.000 0.000 0.000 0.000 0.000 0.835
24 72.00 1500.00 449 737 0.740 10000.000 0.000 0.000 0.000 0.000 0.835
25 75.00 1500.00 478 746 0.740 10000.000 0.000 0.000 0.000 0.000 0.835
26 78.00 1500.00 457 738 0.740 10000.000 0.000 0.000 0.000 0.000 0.835
27 81.00 1500.00 493 699 0.740 10000.000 0.000 0.000 0.000 0.000 0.835
28 84.00 1500.00 467 713 0.740 10000.000 0.000 0.000 0.000 0.000 0.835
29 87.00 1500.00 429 730 0.740 10000.000 0.000 0.000 0.000 0.000 0.835
30 90.00 1500.00 463 773 0.740 10000.000 0.000 0.000 0.000 0.000 0.835
31 93.00 1500.00 447 744 0.740 10000.000 0.000 0.000 0.000 0.000 0.835
32 96.00 1500.00 439 787 0.740 10000.000 0.000 0.000 0.000 0.000 0.835
33 99.00 1500.00 470 725 0.740 10000.000 0.000 0.000 0.000 0.000 0.835
34 102.00 1500.00 455 780 0.740 10000.000 0.000 0.000 0.000 0.000 0.835
35 105.00 1500.00 392 762 0.740 10000.000 0.000 0.000 0.000 0.000 0.835
36 108.00 1500.00 442 771 0.740 10000.000 0.000 0.000 0.000 0.000 0.835
37 111.00 1500.00 415 729 0.740 10000.000 0.000 0.000 0.000 0.000 0.835
38 114.00 1500.00 439 724 0.740 10000.000 0.000 0.000 0.000 0.000 0.835
39 117.00 1500.00 413 747 0.740 10000.000 0.000 0.000 0.000 0.000 0.835
40 120.00 1500.00 445 782 0.740 10000.000 0.000 0.000 0.000 0.000 0.835
41 123.00 1500.00 392 714 0.740 10000.000 0.000 0.000 0.000 0.000 0.835
42 126.00 1500.00 442 767 0.740 10000.000 0.000 0.000 0.000 0.000 0.835
43 129.00 1500.00 459 798 0.740 10000.000 0.000 0.000 0.000 0.000 0.835
44 132.00 1500.00 423 842 0.740 10000.000 0.000 0.000 0.000 0.000 0.835
45 135.00 1500.00 453 792 0.740 10000.000 0.000 0.000 0.000 0.000 0.835
46 138.00 1500.00 470 806 0.740 10000.000 0.000 0.000 0.000 0.000 0.835
47 141.00 1500.00 427 863 0.740 10000.000 0.000 0.000 0.000 0.000 0.835
48 144.00 1500.00 450 814 0.740 10000.000 0.000 0.000 0.000 0.000 0.835
49 147.00 1500.00 482 839 0.740 10000.000 0.000 0.000 0.000 0.000 0.835
50 150.00 1500.00 423 888 0.740 10000.000 0.000 0.000 0.000 0.000 0.835
51 153.00 1500.00 424 780 0.740 10000.000 0.000 0.000 0.000 0.000 0.835
52 156.00 1500.00 435 832 0.740 10000.000 0.000 0.000 0.000 0.000 0.835
53 159.00 1500.00 424 779 0.740 10000.000 0.000 0.000 0.000 0.000 0.835
54 162.00 1500.00 414 817 0.740 10000.000 0.000 0.000 0.000 0.000 0.835
55 165.00 1500.00 452 766 0.740 10000.000 0.000 0.000 0.000 0.000 0.835
56 168.00 1500.00 452 770 0.740 10000.000 0.000 0.000 0.000 0.000 0.835
57 171.00 1500.00 416 780 0.740 10000.000 0.000 0.000 0.000 0.000 0.835
58 174.00 1500.00 457 731 0.740 10000.000 0.000 0.000 0.000 0.000 0.835
59 177.00 1500.00 452 698 0.740 10000.000 0.000 0.000 0.000 0.000 0.835
60 180.00 1500.00 453 781 0.740 10000.000 0.000 0.000 0.000 0.000 0.835
61 183.00 1500.00 429 756 0.740 10000.000 0.000 0.000 0.000 0.000 0.835
62 186.00 1500.00 447 811 0.740 10000.000 0.000 0.000 0.000 0.000 0.835
63 189.00 1500.00 483 750 0.740 10000.000 0.000 0.000 0.000 0.000 0.835
64 192.00 1500.00 445 866 0.740 10000.000 0.000 0.000 0.000 0.000 0.835
65 195.00 1500.00 432 827 0.740 10000.000 0.000 0.000 0.000 0.000 0.835
66 198.00 1500.00 454 750 0.740 10000.000 0.000 0.000 0.000 0.000 0.835
67 201.00 1500.00 440 720 0.740 10000.000 0.000 0.000 0.000 0.000 0.835
68 204.00 1500.00 432 781 0.740 10000.000 0.000 0.000 0.000 0.000 0.835
69 207.00 1500.00 453 739 0.740 10000.000 0.000 0.000 0.000 0.000 0.835
70 210.00 1500.00 417 763 0.740 10000.000 0.000 0.000 0.000 0.000 0.835
71 213.00 1500.00 417 739 0.740 10000.000 0.000 0.000 0.000 0.000 0.835
72 216.00 1500.00 434 698 0.740 10000.000 0.000 0.000 0.000 0.000 0.835
73 219.00 1500.00 400 723 0.740 10000.000 0.000 0.000 0.000 0.000 0.835
74 222.00 1500.00 418 756 0.740 10000.000 0.000 0.000 0.000 0.000 0.835
75 225.00 1500.00 440 725 0.740 10000.000 0.000 0.000 0.000 0.000 0.835
76 228.00 1500.00 447 756 0.740 10000.000 0.000 0.000 0.000 0.000 0.835
77 231.00 1500.00 434 814 0.740 10000.000 0.000 0.000 0.000 0.000 0.835
78 234.00 1500.00 402 803 0.740 10000.000 0.000 0.000 0.000 0.000 0.835
79 237.00 1500.00 446 792 0.740 10000.000 0.000 0.000 0.000 0.000 0.835
80 240.00 1500.00 441 838 0.740 10000.000 0.000 0.000 0.000 0.000 0.835
81 243.00 1500.00 438 829 0.740 10000.000 0.000 0.000 0.000 0.000 0.835
82 246.00 1500.00 455 853 0.740 10000.000 0.000 0.000 0.000 0.000 0.835
83 249.00 1500.00 420 859 0.740 10000.000 0.000 0.000 0.000 0.000 0.835
84 252.00 1500.00 411 844 0.740 10000.000 0.000 0.000 0.000 0.000 0.835
85 255.00 1500.00 468 841 0.740 10000.000 0.000 0.000 0.000 0.000 0.835
86 258.00 1500.00 447 780 0.740 10000.000 0.000 0.000 0.000 0.000 0.835
87 261.00 1500.00 464 777 0.740 10000.000 0.000 0.000 0.000 0.000 0.835
88 264.00 1500.00 473 805 0.740 10000.000 0.000 0.000 0.000 0.000 0.835
89 267.00 1500.00 447 735 0.740 10000.000 0.000 0.000 0.000 0.000 0.835
90 270.00 1500.00 461 752 0.740 10000.000 0.000 0.000 0.000 0.000 0.835
91 273.00 1500.00 422 736 0.740 10000.000 0.000 0.000 0.000 0.000 0.835
92 276.00 1500.00 487 692 0.740 10000.000 0.000 0.000 0.000 0.000 0.835
93 279.00 1500.00 456 722 0.740 10000.000 0.000 0.000 0.000 0.000 0.835
94 282.00 1500.00 474 751 0.740 10000.000 0.000 0.000 0.000 0.000 0.835
95 285.00 1500.00 432 728 0.740 10000.000 0.000 0.000 0.000 0.000 0.835
96 288.00 1500.00 421 772 0.740 10000.000 0.000 0.000 0.000 0.000 0.835
97 291.00 1500.00 473 815 0.740 10000.000 0.000 0.000 0.000 0.000 0.835
98 294.00 1500.00 451 819 0.740 10000.000 0.000 0.000 0.000 0.000 0.835
99 297.00 1500.00 424 756 0.740 10000.000 0.000 0.000 0.000 0.000 0.835
100 300.00 1500.00 438 795 0.740 10000.000 0.000 0.000 0.000 0.000 0.835
101 303.00 1500.00 438 741 0.740 10000.000 0.000 0.000 0.000 0.000 0.835
102 306.00 1500.00 447 818 0.740 10000.000 0.000 0.000 0.000 0.000 0.835
103 309.00 1500.00 417 793 0.740 10000.000 0.000 0.000 0.000 0.000 0.835
104 312.00 1500.00 430 742 0.740 10000.000 0.000 0.000 0.000 0.000 0.835
105 315.00 1500.00 426 701 0.740 10000.000 0.000 0.000 0.000 0.000 0.835
106 318.00 1500.00 397 752 0.740 10000.000 0.000 0.000 0.000 0.000 0.835
107 321.00 1500.00 425 712 0.740 10000.000 0.000 0.000 0.000 0.000 0.835
108 324.00 1500.00 445 702 0.740 10000.000 0.000 0.000 0.000 0.000 0.835
109 327.00 1500.00 438 751 0.740 10000.000 0.000 0.000 0.000 0.000 0.835
110 330.00 1500.00 459 759 0.740 10000.000 0.000 0.000 0.000 0.000 0.835
111 333.00 1500.00 459 724 0.740 10000.000 0.000 0.000 0.000 0.000 0.835
112 336.00 1500.00 425 796 0.740 10000.000 0.000 0.000 0.000 0.000 0.835
113 339.00 1500.00 432 798 0.740 10000.000 0.000 0.000 0.000 0.000 0.835
114 342.00 1500.00 455 906 0.740 10000.000 0.000 0.000 0.000 0.000 0.835
115 345.00 1500.00 439 833 0.740 10000.000 0.000 0.000 0.000 0.000 0.835
116 348.00 1500.00 447 834 0.740 10000.000 0.000 0.000 0.000 0.000 0.835
117 351.00 1500.00 417 849 0.740 10000.000 0.000 0.000 0.000 0.000 0.835
118 354.00 1500.00 430 850 0.740 10000.000 0.000 0.000 0.000 0.000 0.835
119 357.00 1500.00 402 850 0.740 10000.000 0.000 0.000 0.000 0.000 0.835
120 360.00 1500.00 432 845 0.740 10000.000 0.000 0.000 0.000 0.000 0.835
121 363.00 1500.00 416 799 0.740 10000.000 0.000 0.000 0.000 0.000 0.835
122 366.00 1500.00 446 786 0.740 10000.000 0.000 0.000 0.000 0.000 0.835
123 369.00 1500.00 419 728 0.740 10000.000 0.000 0.000 0.000 0.000 0.835
124 372.00 1500.00 447 750 0.740 10000.000 0.000 0.000 0.000 0.000 0.835
125 375.00 1500.00 460 750 0.740 10000.000 0.000 0.000 0.000 0.000 0.835
126 378.00 1500.00 433 730 0.740 10000.000 0.000 0.000 0.000 0.000 0.835
127 381.00 1500.00 468 728 0.740 10000.000 0.000 0.000 0.000 0.000 0.835
128 384.00 1500.00 424 721 0.740 10000.000 0.000 0.000 0.000 0.000 0.835
129 387.00 1500.00 435 773 0.740 10000.000 0.000 0.000 0.000 0.000 0.835
130 390.00 1500.00 454 763 0.740 10000.000 0.000 0.000 0.000 0.000 0.835
131 393.00 1500.00 457 814 0.740 10000.000 0.000 0.000 0.000 0.000 0.835
132 396.00 1500.00 436 806 0.740 10000.000 0.000 0.000 0.000 0.000 0.835
133 399.00 1500.00 468 745 0.740 10000.000 0.000 0.000 0.000 0.000 0.835
134 402.00 1500.00 462 848 0.740 10000.000 0.000 0.000 0.000 0.000 0.835
135 405.00 1500.00 434 728 0.740 10000.000 0.000 0.000 0.000 0.000 0.835
136 408.00 1500.00 440 754 0.740 10000.000 0.000 0.000 0.000 0.000 0.835
137 411.00 1500.00 426 742 0.740 10000.000 0.000 0.000 0.000 0.000 0.835
138 414.00 1500.00 451 777 0.740 10000.000 0.000 0.000 0.000 0.000 0.835
139 417.00 1500.00 484 800 0.740 10000.000 0.000 0.000 0.000 0.000 0.835
140 420.00 1500.00 455 774 0.740 10000.000 0.000 0.000 0.000 0.000 0.835
141 423.00 1500.00 463 723 0.740 10000.000 0.000 0.000 0.000 0.000 0.835
142 426.00 1500.00 468 696 0.740 10000.000 0.000 0.000 0.000 0.000 0.835
143 429.00 1500.00 428 768 0.740 10000.000 0.000 0.000 0.000 0.000 0.835
144 432.00 1500.00 455 812 0.740 10000.000 0.000 0.000 0.000 0.000 0.835
