# BinNR microsec tot-time (s)  O-Beam AUX Ampl_1(V) f_1(Hz) phase_1(deg) Ampl_2(V) f_2(Hz) phase_2(deg) chi(pos)
0 0.00 1500.02 204 513 0.370 10000.000 0.000 0.300 15000.000 0.000 -0.154
1 3.00 1500.02 397 975 0.370 10000.000 0.000 0.300 15000.000 0.000 -0.154
2 6.00 1500.02 413 1068 0.370 10000.000 0.000 0.300 15000.000 0.000 -0.154
3 9.00 1500.02 440 1023 0.370 10000.000 0.000 0.300 15000.000 0.000 -0.154
4 12.00 1500.02 426 1007 0.370 10000.000 0.000 0.300 15000.000 0.000 -0.154
5 15.00 1500.02 438 1016 0.370 10000.000 0.000 0.300 15000.000 0.000 -0.154
6 18.00 1500.02 429 1109 0.370 10000.000 0.000 0.300 15000.000 0.000 -0.154
7 21.00 1500.02 445 1139 0.370 10000.000 0.000 0.300 15000.000 0.000 -0.154
8 24.00 1500.02 441 1056 0.370 10000.000 0.000 0.300 15000.000 0.000 -0.154
9 27.00 1500.02 430 1075 0.370 10000.000 0.000 0.300 15000.000 0.000 -0.154
10 30.00 1500.02 478 1150 0.370 10000.000 0.000 0.300 15000.000 0.000 -0.154
11 33.00 1500.02 419 1105 0.370 10000.000 0.000 0.300 15000.000 0.000 -0.154
12 36.00 1500.02 483 1105 0.370 10000.000 0.000 0.300 15000.000 0.000 -0.154
13 39.00 1500.02 420 1120 0.370 10000.000 0.000 0.300 15000.000 0.000 -0.154
14 42.00 1500.02 440 1100 0.370 10000.000 0.000 0.300 15000.000 0.000 -0.154
15 45.00 1500.02 450 1044 0.370 10000.000 0.000 0.300 15000.000 0.000 -0.154
16 48.00 1500.02 412 1040 0.370 10000.000 0.000 0.300 15000.000 0.000 -0.154
17 51.00 1500.02 405 1026 0.370 10000.000 0.000 0.300 15000.000 0.000 -0.154
18 54.00 1500.02 432 1086 0.370 10000.000 0.000 0.300 15000.000 0.000 -0.154
19 57.00 1500.02 435 1024 0.370 10000.000 0.000 0.300 15000.000 0.000 -0.154
20 60.00 1500.02 458 1039 0.370 10000.000 0.000 0.300 15000.000 0.000 -0.154
21 63.00 1500.02 453 1040 0.370 10000.000 0.000 0.300 15000.000 0.000 -0.154
22 66.00 1500.02 435 1088 0.370 10000.000 0.000 0.300 15000.000 0.000 -0.154
23 69.00 1500.02 437 1076 0.370 10000.000 0.000 0.300 15000.000 0.000 -0.154
24 72.00 1500.02 465 1114 0.370 10000.000 0.000 0.300 15000.000 0.000 -0.154
25 75.00 1500.02 398 1220 0.370 10000.000 0.000 0.300 15000.000 0.000 -0.154
26 78.00 1500.02 405 1172 0.370 10000.000 0.000 0.300 15000.000 0.000 -0.154
27 81.00 1500.02 401 1129 0.370 10000.000 0.000 0.300 15000.000 0.000 -0.154
28 84.00 1500.02 411 1191 0.370 10000.000 0.000 0.300 15000.000 0.000 -0.154
29 87.00 1500.02 360 1153 0.370 10000.000 0.000 0.300 15000.000 0.000 -0.154
30 90.00 1500.02 392 1205 0.370 10000.000 0.000 0.300 15000.000 0.000 -0.154
31 93.00 1500.02 396 1142 0.370 10000.000 0.000 0.300 15000.000 0.000 -0.154
32 96.00 1500.02 422 1188 0.370 10000.000 0.000 0.300 15000.000 0.000 -0.154
33 99.00 1500.02 429 1109 0.370 10000.000 0.000 0.300 15000.000 0.000 -0.154
34 102.00 1500.02 450 1173 0.370 10000.000 0.000 0.300 15000.000 0.000 -0.154
35 105.00 1500.02 442 1131 0.370 10000.000 0.000 0.300 15000.000 0.000 -0.154
36 108.00 1500.02 415 1112 0.370 10000.000 0.000 0.300 15000.000 0.000 -0.154
37 111.00 1500.02 451 1102 0.370 10000.000 0.000 0.300 15000.000 0.000 -0.154
38 114.00 1500.02 445 1114 0.370 10000.000 0.000 0.300 15000.000 0.000 -0.154
39 117.00 1500.02 441 1082 0.370 10000.000 0.000 0.300 15000.000 0.000 -0.154
40 120.00 1500.02 455 1029 0.370 10000.000 0.000 0.300 15000.000 0.000 -0.154
41 123.00 1500.02 428 1102 0.370 10000.000 0.000 0.300 15000.000 0.000 -0.154
42 126.00 1500.02 423 1117 0.370 10000.000 0.000 0.300 15000.000 0.000 -0.154
43 129.00 1500.02 393 1070 0.370 10000.000 0.000 0.300 15000.000 0.000 -0.154
44 132.00 1500.02 403 1120 0.370 10000.000 0.000 0.300 15000.000 0.000 -0.154
45 135.00 1500.02 484 1129 0.370 10000.000 0.000 0.300 15000.000 0.000 -0.154
46 138.00 1500.02 453 1100 0.370 10000.000 0.000 0.300 15000.000 0.000 -0.154
47 141.00 1500.02 424 1151 0.370 10000.000 0.000 0.300 15000.000 0.000 -0.154
48 144.00 1500.02 448 1166 0.370 10000.000 0.000 0.300 15000.000 0.000 -0.154
49 147.00 1500.02 401 1081 0.370 10000.000 0.000 0.300 15000.000 0.000 -0.154
50 150.00 1500.02 409 1197 0.370 10000.000 0.000 0.300 15000.000 0.000 -0.154
51 153.00 1500.02 415 1145 0.370 10000.000 0.000 0.300 15000.000 0.000 -0.154
52 156.00 1500.02 445 1132 0.370 10000.000 0.000 0.300 15000.000 0.000 -0.154
53 159.00 1500.02 425 1055 0.370 10000.000 0.000 0.300 15000.000 0.000 -0.154
54 162.00 1500.02 446 1081 0.370 10000.000 0.000 0.300 15000.000 0.000 -0.154
55 165.00 1500.02 407 1063 0.370 10000.000 0.000 0.300 15000.000 0.000 -0.154
56 168.00 1500.02 442 1035 0.370 10000.000 0.000 0.300 15000.000 0.000 -0.154
57 171.00 1500.02 485 1109 0.370 10000.000 0.000 0.300 15000.000 0.000 -0.154
58 174.00 1500.02 446 1121 0.370 10000.000 0.000 0.300 15000.000 0.000 -0.154
59 177.00 1500.02 408 1011 0.370 10000.000 0.000 0.300 15000.000 0.000 -0.154
60 180.00 1500.02 397 1170 0.370 10000.000 0.000 0.300 15000.000 0.000 -0.154
61 183.00 1500.02 404 1054 0.370 10000.000 0.000 0.300 15000.000 0.000 -0.154
62 186.00 1500.02 456 1124 0.370 10000.000 0.000 0.300 15000.000 0.000 -0.154
63 189.00 1500.02 408 1108 0.370 10000.000 0.000 0.300 15000.000 0.000 -0.154
64 192.00 1500.02 429 1130 0.370 10000.000 0.000 0.300 15000.000 0.000 -0.154
65 195.00 1500.02 432 1164 0.370 10000.000 0.000 0.300 15000.000 0.000 -0.154
66 198.00 1500.02 437 1206 0.370 10000.000 0.000 0.300 15000.000 0.000 -0.154
67 201.00 1500.02 379 1248 0.370 10000.000 0.000 0.300 15000.000 0.000 -0.154
68 204.00 1500.02 401 1210 0.370 10000.000 0.000 0.300 15000.000 0.000 -0.154
69 207.00 1500.02 402 1167 0.370 10000.000 0.000 0.300 15000.000 0.000 -0.154
70 210.00 1500.02 435 1249 0.370 10000.000 0.000 0.300 15000.000 0.000 -0.154
71 213.00 1500.02 407 1173 0.370 10000.000 0.000 0.300 15000.000 0.000 -0.154
72 216.00 1500.02 460 1254 0.370 10000.000 0.000 0.300 15000.000 0.000 -0.154
73 219.00 1500.02 391 1167 0.370 10000.000 0.000 0.300 15000.000 0.000 -0.154
74 222.00 1500.02 408 1156 0.370 10000.000 0.000 0.300 15000.000 0.000 -0.154
75 225.00 1500.02 395 1156 0.370 10000.000 0.000 0.300 15000.000 0.000 -0.154
76 228.00 1500.02 448 1152 0.370 10000.000 0.000 0.300 15000.000 0.000 -0.154
77 231.00 1500.02 442 1098 0.370 10000.000 0.000 0.300 15000.000 0.000 -0.154
78 234.00 1500.02 456 1098 0.370 10000.000 0.000 0.300 15000.000 0.000 -0.154
79 237.00 1500.02 460 1030 0.370 10000.000 0.000 0.300 15000.000 0.000 -0.154
80 240.00 1500.02 425 989 0.370 10000.000 0.000 0.300 15000.000 0.000 -0.154
81 243.00 1500.02 431 904 0.370 10000.000 0.000 0.300 15000.000 0.000 -0.154
82 246.00 1500.02 451 992 0.370 10000.000 0.000 0.300 15000.000 0.000 -0.154
83 249.00 1500.02 435 974 0.370 10000.000 0.000 0.300 15000.000 0.000 -0.154
84 252.00 1500.02 400 948 0.370 10000.000 0.000 0.300 15000.000 0.000 -0.154
85 255.00 1500.02 406 909 0.370 10000.000 0.000 0.300 15000.000 0.000 -0.154
86 258.00 1500.02 428 1012 0.370 10000.000 0.000 0.300 15000.000 0.000 -0.154
87 261.00 1500.02 428 1006 0.370 10000.000 0.000 0.300 15000.000 0.000 -0.154
88 264.00 1500.02 409 1088 0.370 10000.000 0.000 0.300 15000.000 0.000 -0.154
89 267.00 1500.02 438 1150 0.370 10000.000 0.000 0.300 15000.000 0.000 -0.154
90 270.00 1500.02 391 1129 0.370 10000.000 0.000 0.300 15000.000 0.000 -0.154
91 273.00 1500.02 403 1127 0.370 10000.000 0.000 0.300 15000.000 0.000 -0.154
92 276.00 1500.02 413 1188 0.370 10000.000 0.000 0.300 15000.000 0.000 -0.154
93 279.00 1500.02 431 1149 0.370 10000.000 0.000 0.300 15000.000 0.000 -0.154
94 282.00 1500.02 454 1206 0.370 10000.000 0.000 0.300 15000.000 0.000 -0.154
95 285.00 1500.02 392 1178 0.370 10000.000 0.000 0.300 15000.000 0.000 -0.154
96 288.00 1500.02 436 1174 0.370 10000.000 0.000 0.300 15000.000 0.000 -0.154
97 291.00 1500.02 426 1177 0.370 10000.000 0.000 0.300 15000.000 0.000 -0.154
98 294.00 1500.02 470 1223 0.370 10000.000 0.000 0.300 15000.000 0.000 -0.154
99 297.00 1500.02 452 1202 0.370 10000.000 0.000 0.300 15000.000 0.000 -0.154
100 300.00 1500.02 425 1181 0.370 10000.000 0.000 0.300 15000.000 0.000 -0.154
101 303.00 1500.02 404 1099 0.370 10000.000 0.000 0.300 15000.000 0.000 -0.154
102 306.00 1500.02 448 1179 0.370 10000.000 0.000 0.300 15000.000 0.000 -0.154
103 309.00 1500.02 407 1064 0.370 10000.000 0.000 0.300 15000.000 0.000 -0.154
104 312.00 1500.02 447 1114 0.370 10000.000 0.000 0.300 15000.000 0.000 -0.154
105 315.00 1500.02 412 1137 0.370 10000.000 0.000 0.300 15000.000 0.000 -0.154
106 318.00 1500.02 426 1084 0.370 10000.000 0.000 0.300 15000.000 0.000 -0.154
107 321.00 1500.02 443 1015 0.370 10000.000 0.000 0.300 15000.000 0.000 -0.154
108 324.00 1500.02 415 1094 0.370 10000.000 0.000 0.300 15000.000 0.000 -0.154
109 327.00 1500.02 453 1086 0.370 10000.000 0.000 0.300 15000.000 0.000 -0.154
110 330.00 1500.02 372 1102 0.370 10000.000 0.000 0.300 15000.000 0.000 -0.154
111 333.00 1500.02 452 1089 0.370 10000.000 0.000 0.300 15000.000 0.000 -0.154
112 336.00 1500.02 384 1088 0.370 10000.000 0.000 0.300 15000.000 0.000 -0.154
113 339.00 1500.02 422 1104 0.370 10000.000 0.000 0.300 15000.000 0.000 -0.154
114 342.00 1500.02 439 1098 0.370 10000.000 0.000 0.300 15000.000 0.000 -0.154
115 345.00 1500.02 444 1150 0.370 10000.000 0.000 0.300 15000.000 0.000 -0.154
116 348.00 1500.02 418 1170 0.370 10000.000 0.000 0.300 15000.000 0.000 -0.154
117 351.00 1500.02 428 1148 0.370 10000.000 0.000 0.300 15000.000 0.000 -0.154
118 354.00 1500.02 444 1133 0.370 10000.000 0.000 0.300 15000.000 0.000 -0.154
119 357.00 1500.02 428 1034 0.370 10000.000 0.000 0.300 15000.000 0.000 -0.154
120 360.00 1500.02 443 1117 0.370 10000.000 0.000 0.300 15000.000 0.000 -0.154
121 363.00 1500.02 410 1070 0.370 10000.000 0.000 0.300 15000.000 0.000 -0.154
122 366.00 1500.02 403 1094 0.370 10000.000 0.000 0.300 15000.000 0.000 -0.154
123 369.00 1500.02 365 1094 0.370 10000.000 0.000 0.300 15000.000 0.000 -0.154
124 372.00 1500.02 418 1085 0.370 10000.000 0.000 0.300 15000.000 0.000 -0.154
125 375.00 1500.02 411 1104 0.370 10000.000 0.000 0.300 15000.000 0.000 -0.154
126 378.00 1500.02 395 1099 0.370 10000.000 0.000 0.300 15000.000 0.000 -0.154
127 381.00 1500.02 442 1094 0.370 10000.000 0.000 0.300 15000.000 0.000 -0.154
128 384.00 1500.02 428 1104 0.370 10000.000 0.000 0.300 15000.000 0.000 -0.154
129 387.00 1500.02 459 1106 0.370 10000.000 0.000 0.300 15000.000 0.000 -0.154
130 390.00 1500.02 450 1091 0.370 10000.000 0.000 0.300 15000.000 0.000 -0.154
131 393.00 1500.02 389 1135 0.370 10000.000 0.000 0.300 15000.000 0.000 -0.154
132 396.00 1500.02 438 1138 0.370 10000.000 0.000 0.300 15000.000 0.000 -0.154
133 399.00 1500.02 416 1082 0.370 10000.000 0.000 0.300 15000.000 0.000 -0.154
134 402.00 1500.02 452 1158 0.370 10000.000 0.000 0.300 15000.000 0.000 -0.154
135 405.00 1500.02 409 1194 0.370 10000.000 0.000 0.300 15000.000 0.000 -0.154
136 408.00 1500.02 408 1224 0.370 10000.000 0.000 0.300 15000.000 0.000 -0.154
137 411.00 1500.02 387 1163 0.370 10000.000 0.000 0.300 15000.000 0.000 -0.154
138 414.00 1500.02 409 1179 0.370 10000.000 0.000 0.300 15000.000 0.000 -0.154
139 417.00 1500.02 424 1156 0.370 10000.000 0.000 0.300 15000.000 0.000 -0.154
140 420.00 1500.02 474 1148 0.370 10000.000 0.000 0.300 15000.000 0.000 -0.154
141 423.00 1500.02 396 1132 0.370 10000.000 0.000 0.300 15000.000 0.000 -0.154
142 426.00 1500.02 442 1103 0.370 10000.000 0.000 0.300 15000.000 0.000 -0.154
143 429.00 1500.02 409 1083 0.370 10000.000 0.000 0.300 15000.000 0.000 -0.154
144 432.00 1500.02 448 1085 0.370 10000.000 0.000 0.300 15000.000 0.000 -0.154
