# BinNR microsec tot-time (s)  O-Beam AUX Ampl_1(V) f_1(Hz) phase_1(deg) Ampl_2(V) f_2(Hz) phase_2(deg) chi(pos)
0 0.00 1500.03 154 547 0.370 10000.000 0.000 0.300 15000.000 0.000 1.329
1 3.00 1500.03 291 1084 0.370 10000.000 0.000 0.300 15000.000 0.000 1.329
2 6.00 1500.03 312 1095 0.370 10000.000 0.000 0.300 15000.000 0.000 1.329
3 9.00 1500.03 297 1097 0.370 10000.000 0.000 0.300 15000.000 0.000 1.329
4 12.00 1500.03 292 1122 0.370 10000.000 0.000 0.300 15000.000 0.000 1.329
5 15.00 1500.03 297 1068 0.370 10000.000 0.000 0.300 15000.000 0.000 1.329
6 18.00 1500.03 303 1038 0.370 10000.000 0.000 0.300 15000.000 0.000 1.329
7 21.00 1500.03 301 1021 0.370 10000.000 0.000 0.300 15000.000 0.000 1.329
8 24.00 1500.03 301 1074 0.370 10000.000 0.000 0.300 15000.000 0.000 1.329
9 27.00 1500.03 270 1038 0.370 10000.000 0.000 0.300 15000.000 0.000 1.329
10 30.00 1500.03 280 1039 0.370 10000.000 0.000 0.300 15000.000 0.000 1.329
11 33.00 1500.03 284 1045 0.370 10000.000 0.000 0.300 15000.000 0.000 1.329
12 36.00 1500.03 293 1005 0.370 10000.000 0.000 0.300 15000.000 0.000 1.329
13 39.00 1500.03 262 963 0.370 10000.000 0.000 0.300 15000.000 0.000 1.329
14 42.00 1500.03 288 1072 0.370 10000.000 0.000 0.300 15000.000 0.000 1.329
15 45.00 1500.03 278 986 0.370 10000.000 0.000 0.300 15000.000 0.000 1.329
16 48.00 1500.03 257 1028 0.370 10000.000 0.000 0.300 15000.000 0.000 1.329
17 51.00 1500.03 263 1106 0.370 10000.000 0.000 0.300 15000.000 0.000 1.329
18 54.00 1500.03 298 1051 0.370 10000.000 0.000 0.300 15000.000 0.000 1.329
19 57.00 1500.03 244 1130 0.370 10000.000 0.000 0.300 15000.000 0.000 1.329
20 60.00 1500.03 306 1055 0.370 10000.000 0.000 0.300 15000.000 0.000 1.329
21 63.00 1500.03 329 1092 0.370 10000.000 0.000 0.300 15000.000 0.000 1.329
22 66.00 1500.03 296 1034 0.370 10000.000 0.000 0.300 15000.000 0.000 1.329
23 69.00 1500.03 320 994 0.370 10000.000 0.000 0.300 15000.000 0.000 1.329
24 72.00 1500.03 307 983 0.370 10000.000 0.000 0.300 15000.000 0.000 1.329
25 75.00 1500.03 311 1007 0.370 10000.000 0.000 0.300 15000.000 0.000 1.329
26 78.00 1500.03 350 938 0.370 10000.000 0.000 0.300 15000.000 0.000 1.329
27 81.00 1500.03 360 864 0.370 10000.000 0.000 0.300 15000.000 0.000 1.329
28 84.00 1500.03 361 945 0.370 10000.000 0.000 0.300 15000.000 0.000 1.329
29 87.00 1500.03 342 797 0.370 10000.000 0.000 0.300 15000.000 0.000 1.329
30 90.00 1500.03 339 962 0.370 10000.000 0.000 0.300 15000.000 0.000 1.329
31 93.00 1500.03 334 877 0.370 10000.000 0.000 0.300 15000.000 0.000 1.329
32 96.00 1500.03 329 901 0.370 10000.000 0.000 0.300 15000.000 0.000 1.329
33 99.00 1500.03 342 908 0.370 10000.000 0.000 0.300 15000.000 0.000 1.329
34 102.00 1500.03 329 1002 0.370 10000.000 0.000 0.300 15000.000 0.000 1.329
35 105.00 1500.03 296 981 0.370 10000.000 0.000 0.300 15000.000 0.000 1.329
36 108.00 1500.03 305 1031 0.370 10000.000 0.000 0.300 15000.000 0.000 1.329
37 111.00 1500.03 297 970 0.370 10000.000 0.000 0.300 15000.000 0.000 1.329
38 114.00 1500.03 283 1052 0.370 10000.000 0.000 0.300 15000.000 0.000 1.329
39 117.00 1500.03 281 1023 0.370 10000.000 0.000 0.300 15000.000 0.000 1.329
40 120.00 1500.03 272 1048 0.370 10000.000 0.000 0.300 15000.000 0.000 1.329
41 123.00 1500.03 245 1095 0.370 10000.000 0.000 0.300 15000.000 0.000 1.329
42 126.00 1500.03 281 1086 0.370 10000.000 0.000 0.300 15000.000 0.000 1.329
43 129.00 1500.03 261 1108 0.370 10000.000 0.000 0.300 15000.000 0.000 1.329
44 132.00 1500.03 285 1062 0.370 10000.000 0.000 0.300 15000.000 0.000 1.329
45 135.00 1500.03 290 985 0.370 10000.000 0.000 0.300 15000.000 0.000 1.329
46 138.00 1500.03 294 1078 0.370 10000.000 0.000 0.300 15000.000 0.000 1.329
47 141.00 1500.03 305 1004 0.370 10000.000 0.000 0.300 15000.000 0.000 1.329
48 144.00 1500.03 317 1000 0.370 10000.000 0.000 0.300 15000.000 0.000 1.329
49 147.00 1500.03 271 972 0.370 10000.000 0.000 0.300 15000.000 0.000 1.329
50 150.00 1500.03 307 1033 0.370 10000.000 0.000 0.300 15000.000 0.000 1.329
51 153.00 1500.03 316 1025 0.370 10000.000 0.000 0.300 15000.000 0.000 1.329
52 156.00 1500.03 325 1046 0.370 10000.000 0.000 0.300 15000.000 0.000 1.329
53 159.00 1500.03 321 1005 0.370 10000.000 0.000 0.300 15000.000 0.000 1.329
54 162.00 1500.03 341 1115 0.370 10000.000 0.000 0.300 15000.000 0.000 1.329
55 165.00 1500.03 317 1053 0.370 10000.000 0.000 0.300 15000.000 0.000 1.329
56 168.00 1500.03 281 1049 0.370 10000.000 0.000 0.300 15000.000 0.000 1.329
57 171.00 1500.03 279 1036 0.370 10000.000 0.000 0.300 15000.000 0.000 1.329
58 174.00 1500.03 282 1058 0.370 10000.000 0.000 0.300 15000.000 0.000 1.329
59 177.00 1500.03 294 1087 0.370 10000.000 0.000 0.300 15000.000 0.000 1.329
60 180.00 1500.03 325 1098 0.370 10000.000 0.000 0.300 15000.000 0.000 1.329
61 183.00 1500.03 273 1025 0.370 10000.000 0.000 0.300 15000.000 0.000 1.329
62 186.00 1500.03 287 1036 0.370 10000.000 0.000 0.300 15000.000 0.000 1.329
63 189.00 1500.03 287 998 0.370 10000.000 0.000 0.300 15000.000 0.000 1.329
64 192.00 1500.03 300 986 0.370 10000.000 0.000 0.300 15000.000 0.000 1.329
65 195.00 1500.03 288 956 0.370 10000.000 0.000 0.300 15000.000 0.000 1.329
66 198.00 1500.03 293 927 0.370 10000.000 0.000 0.300 15000.000 0.000 1.329
67 201.00 1500.03 328 882 0.370 10000.000 0.000 0.300 15000.000 0.000 1.329
68 204.00 1500.03 303 905 0.370 10000.000 0.000 0.300 15000.000 0.000 1.329
69 207.00 1500.03 299 907 0.370 10000.000 0.000 0.300 15000.000 0.000 1.329
70 210.00 1500.03 337 912 0.370 10000.000 0.000 0.300 15000.000 0.000 1.329
71 213.00 1500.03 328 890 0.370 10000.000 0.000 0.300 15000.000 0.000 1.329
72 216.00 1500.03 310 861 0.370 10000.000 0.000 0.300 15000.000 0.000 1.329
73 219.00 1500.03 332 894 0.370 10000.000 0.000 0.300 15000.000 0.000 1.329
74 222.00 1500.03 322 959 0.370 10000.000 0.000 0.300 15000.000 0.000 1.329
75 225.00 1500.03 306 1011 0.370 10000.000 0.000 0.300 15000.000 0.000 1.329
76 228.00 1500.03 296 1009 0.370 10000.000 0.000 0.300 15000.000 0.000 1.329
77 231.00 1500.03 291 1051 0.370 10000.000 0.000 0.300 15000.000 0.000 1.329
78 234.00 1500.03 323 1043 0.370 10000.000 0.000 0.300 15000.000 0.000 1.329
79 237.00 1500.03 262 1054 0.370 10000.000 0.000 0.300 15000.000 0.000 1.329
80 240.00 1500.03 262 1135 0.370 10000.000 0.000 0.300 15000.000 0.000 1.329
81 243.00 1500.03 233 1152 0.370 10000.000 0.000 0.300 15000.000 0.000 1.329
82 246.00 1500.03 269 1160 0.370 10000.000 0.000 0.300 15000.000 0.000 1.329
83 249.00 1500.03 260 1086 0.370 10000.000 0.000 0.300 15000.000 0.000 1.329
84 252.00 1500.03 268 1166 0.370 10000.000 0.000 0.300 15000.000 0.000 1.329
85 255.00 1500.03 246 1117 0.370 10000.000 0.000 0.300 15000.000 0.000 1.329
86 258.00 1500.03 301 1105 0.370 10000.000 0.000 0.300 15000.000 0.000 1.329
87 261.00 1500.03 287 1094 0.370 10000.000 0.000 0.300 15000.000 0.000 1.329
88 264.00 1500.03 345 1059 0.370 10000.000 0.000 0.300 15000.000 0.000 1.329
89 267.00 1500.03 289 1030 0.370 10000.000 0.000 0.300 15000.000 0.000 1.329
90 270.00 1500.03 328 1038 0.370 10000.000 0.000 0.300 15000.000 0.000 1.329
91 273.00 1500.03 305 937 0.370 10000.000 0.000 0.300 15000.000 0.000 1.329
92 276.00 1500.03 336 943 0.370 10000.000 0.000 0.300 15000.000 0.000 1.329
93 279.00 1500.03 357 945 0.370 10000.000 0.000 0.300 15000.000 0.000 1.329
94 282.00 1500.03 341 954 0.370 10000.000 0.000 0.300 15000.000 0.000 1.329
95 285.00 1500.03 330 820 0.370 10000.000 0.000 0.300 15000.000 0.000 1.329
96 288.00 1500.03 348 945 0.370 10000.000 0.000 0.300 15000.000 0.000 1.329
97 291.00 1500.03 333 870 0.370 10000.000 0.000 0.300 15000.000 0.000 1.329
98 294.00 1500.03 317 887 0.370 10000.000 0.000 0.300 15000.000 0.000 1.329
99 297.00 1500.03 309 944 0.370 10000.000 0.000 0.300 15000.000 0.000 1.329
100 300.00 1500.03 335 939 0.370 10000.000 0.000 0.300 15000.000 0.000 1.329
101 303.00 1500.03 283 1010 0.370 10000.000 0.000 0.300 15000.000 0.000 1.329
102 306.00 1500.03 357 1030 0.370 10000.000 0.000 0.300 15000.000 0.000 1.329
103 309.00 1500.03 285 1007 0.370 10000.000 0.000 0.300 15000.000 0.000 1.329
104 312.00 1500.03 298 1099 0.370 10000.000 0.000 0.300 15000.000 0.000 1.329
105 315.00 1500.03 304 1063 0.370 10000.000 0.000 0.300 15000.000 0.000 1.329
106 318.00 1500.03 322 1079 0.370 10000.000 0.000 0.300 15000.000 0.000 1.329
107 321.00 1500.03 302 1108 0.370 10000.000 0.000 0.300 15000.000 0.000 1.329
108 324.00 1500.03 309 1112 0.370 10000.000 0.000 0.300 15000.000 0.000 1.329
109 327.00 1500.03 353 982 0.370 10000.000 0.000 0.300 15000.000 0.000 1.329
110 330.00 1500.03 332 1073 0.370 10000.000 0.000 0.300 15000.000 0.000 1.329
111 333.00 1500.03 312 995 0.370 10000.000 0.000 0.300 15000.000 0.000 1.329
112 336.00 1500.03 290 1069 0.370 10000.000 0.000 0.300 15000.000 0.000 1.329
113 339.00 1500.03 319 1070 0.370 10000.000 0.000 0.300 15000.000 0.000 1.329
114 342.00 1500.03 330 993 0.370 10000.000 0.000 0.300 15000.000 0.000 1.329
115 345.00 1500.03 280 1007 0.370 10000.000 0.000 0.300 15000.000 0.000 1.329
116 348.00 1500.03 265 1009 0.370 10000.000 0.000 0.300 15000.000 0.000 1.329
117 351.00 1500.03 285 977 0.370 10000.000 0.000 0.300 15000.000 0.000 1.329
118 354.00 1500.03 262 1020 0.370 10000.000 0.000 0.300 15000.000 0.000 1.329
119 357.00 1500.03 258 1027 0.370 10000.000 0.000 0.300 15000.000 0.000 1.329
120 360.00 1500.03 264 1112 0.370 10000.000 0.000 0.300 15000.000 0.000 1.329
121 363.00 1500.03 254 1103 0.370 10000.000 0.000 0.300 15000.000 0.000 1.329
122 366.00 1500.03 293 1083 0.370 10000.000 0.000 0.300 15000.000 0.000 1.329
123 369.00 1500.03 277 1097 0.370 10000.000 0.000 0.300 15000.000 0.000 1.329
124 372.00 1500.03 285 1125 0.370 10000.000 0.000 0.300 15000.000 0.000 1.329
125 375.00 1500.03 283 1034 0.370 10000.000 0.000 0.300 15000.000 0.000 1.329
126 378.00 1500.03 267 1062 0.370 10000.000 0.000 0.300 15000.000 0.000 1.329
127 381.00 1500.03 279 1037 0.370 10000.000 0.000 0.300 15000.000 0.000 1.329
128 384.00 1500.03 305 1110 0.370 10000.000 0.000 0.300 15000.000 0.000 1.329
129 387.00 1500.03 332 1051 0.370 10000.000 0.000 0.300 15000.000 0.000 1.329
130 390.00 1500.03 300 1048 0.370 10000.000 0.000 0.300 15000.000 0.000 1.329
131 393.00 1500.03 303 952 0.370 10000.000 0.000 0.300 15000.000 0.000 1.329
132 396.00 1500.03 282 946 0.370 10000.000 0.000 0.300 15000.000 0.000 1.329
133 399.00 1500.03 314 855 0.370 10000.000 0.000 0.300 15000.000 0.000 1.329
134 402.00 1500.03 330 865 0.370 10000.000 0.000 0.300 15000.000 0.000 1.329
135 405.00 1500.03 297 883 0.370 10000.000 0.000 0.300 15000.000 0.000 1.329
136 408.00 1500.03 346 994 0.370 10000.000 0.000 0.300 15000.000 0.000 1.329
137 411.00 1500.03 324 846 0.370 10000.000 0.000 0.300 15000.000 0.000 1.329
138 414.00 1500.03 311 890 0.370 10000.000 0.000 0.300 15000.000 0.000 1.329
139 417.00 1500.03 323 936 0.370 10000.000 0.000 0.300 15000.000 0.000 1.329
140 420.00 1500.03 322 922 0.370 10000.000 0.000 0.300 15000.000 0.000 1.329
141 423.00 1500.03 319 967 0.370 10000.000 0.000 0.300 15000.000 0.000 1.329
142 426.00 1500.03 323 1047 0.370 10000.000 0.000 0.300 15000.000 0.000 1.329
143 429.00 1500.03 320 1040 0.370 10000.000 0.000 0.300 15000.000 0.000 1.329
144 432.00 1500.03 344 1081 0.370 10000.000 0.000 0.300 15000.000 0.000 1.329
