# BinNR microsec tot-time (s)  O-Beam AUX Ampl(V) f(Hz) phase(deg) chi(pos)
0 0.00 1500.04 199 537 1.520 10000.000 0.000 -0.176
1 3.00 1500.04 350 1058 1.520 10000.000 0.000 -0.176
2 6.00 1500.04 362 1044 1.520 10000.000 0.000 -0.176
3 9.00 1500.04 350 1043 1.520 10000.000 0.000 -0.176
4 12.00 1500.04 319 1083 1.520 10000.000 0.000 -0.176
5 15.00 1500.04 355 1068 1.520 10000.000 0.000 -0.176
6 18.00 1500.04 314 1088 1.520 10000.000 0.000 -0.176
7 21.00 1500.04 332 1086 1.520 10000.000 0.000 -0.176
8 24.00 1500.04 357 1108 1.520 10000.000 0.000 -0.176
9 27.00 1500.04 348 1086 1.520 10000.000 0.000 -0.176
10 30.00 1500.04 351 1068 1.520 10000.000 0.000 -0.176
11 33.00 1500.04 343 1060 1.520 10000.000 0.000 -0.176
12 36.00 1500.04 359 1076 1.520 10000.000 0.000 -0.176
13 39.00 1500.04 348 974 1.520 10000.000 0.000 -0.176
14 42.00 1500.04 379 1121 1.520 10000.000 0.000 -0.176
15 45.00 1500.04 348 1027 1.520 10000.000 0.000 -0.176
16 48.00 1500.04 336 1055 1.520 10000.000 0.000 -0.176
17 51.00 1500.04 376 1054 1.520 10000.000 0.000 -0.176
18 54.00 1500.04 342 1130 1.520 10000.000 0.000 -0.176
19 57.00 1500.04 358 1035 1.520 10000.000 0.000 -0.176
20 60.00 1500.04 347 1018 1.520 10000.000 0.000 -0.176
21 63.00 1500.04 362 1038 1.520 10000.000 0.000 -0.176
22 66.00 1500.04 346 1140 1.520 10000.000 0.000 -0.176
23 69.00 1500.04 357 986 1.520 10000.000 0.000 -0.176
24 72.00 1500.04 343 1082 1.520 10000.000 0.000 -0.176
25 75.00 1500.04 306 1077 1.520 10000.000 0.000 -0.176
26 78.00 1500.04 340 1100 1.520 10000.000 0.000 -0.176
27 81.00 1500.04 337 1050 1.520 10000.000 0.000 -0.176
28 84.00 1500.04 306 1135 1.520 10000.000 0.000 -0.176
29 87.00 1500.04 372 1030 1.520 10000.000 0.000 -0.176
30 90.00 1500.04 326 1069 1.520 10000.000 0.000 -0.176
31 93.00 1500.04 348 1055 1.520 10000.000 0.000 -0.176
32 96.00 1500.04 362 1133 1.520 10000.000 0.000 -0.176
33 99.00 1500.04 369 1090 1.520 10000.000 0.000 -0.176
34 102.00 1500.04 360 1058 1.520 10000.000 0.000 -0.176
35 105.00 1500.04 371 1069 1.520 10000.000 0.000 -0.176
36 108.00 1500.04 370 1080 1.520 10000.000 0.000 -0.176
37 111.00 1500.04 357 1038 1.520 10000.000 0.000 -0.176
38 114.00 1500.04 345 1089 1.520 10000.000 0.000 -0.176
39 117.00 1500.04 348 1080 1.520 10000.000 0.000 -0.176
40 120.00 1500.04 369 1057 1.520 10000.000 0.000 -0.176
41 123.00 1500.04 362 1066 1.520 10000.000 0.000 -0.176
42 126.00 1500.04 348 1121 1.520 10000.000 0.000 -0.176
43 129.00 1500.04 319 1052 1.520 10000.000 0.000 -0.176
44 132.00 1500.04 353 993 1.520 10000.000 0.000 -0.176
45 135.00 1500.04 315 1121 1.520 10000.000 0.000 -0.176
46 138.00 1500.04 317 1053 1.520 10000.000 0.000 -0.176
47 141.00 1500.04 326 1074 1.520 10000.000 0.000 -0.176
48 144.00 1500.04 306 1001 1.520 10000.000 0.000 -0.176
49 147.00 1500.04 362 1058 1.520 10000.000 0.000 -0.176
50 150.00 1500.04 363 1072 1.520 10000.000 0.000 -0.176
51 153.00 1500.04 359 1091 1.520 10000.000 0.000 -0.176
52 156.00 1500.04 396 1111 1.520 10000.000 0.000 -0.176
53 159.00 1500.04 356 1053 1.520 10000.000 0.000 -0.176
54 162.00 1500.04 352 1054 1.520 10000.000 0.000 -0.176
55 165.00 1500.04 331 1025 1.520 10000.000 0.000 -0.176
56 168.00 1500.04 328 1036 1.520 10000.000 0.000 -0.176
57 171.00 1500.04 323 1090 1.520 10000.000 0.000 -0.176
58 174.00 1500.04 354 1144 1.520 10000.000 0.000 -0.176
59 177.00 1500.04 347 1059 1.520 10000.000 0.000 -0.176
60 180.00 1500.04 347 1068 1.520 10000.000 0.000 -0.176
61 183.00 1500.04 352 1024 1.520 10000.000 0.000 -0.176
62 186.00 1500.04 331 1097 1.520 10000.000 0.000 -0.176
63 189.00 1500.04 326 1028 1.520 10000.000 0.000 -0.176
64 192.00 1500.04 350 1081 1.520 10000.000 0.000 -0.176
65 195.00 1500.04 349 1087 1.520 10000.000 0.000 -0.176
66 198.00 1500.04 336 1109 1.520 10000.000 0.000 -0.176
67 201.00 1500.04 319 1034 1.520 10000.000 0.000 -0.176
68 204.00 1500.04 359 1033 1.520 10000.000 0.000 -0.176
69 207.00 1500.04 349 1017 1.520 10000.000 0.000 -0.176
70 210.00 1500.04 334 1090 1.520 10000.000 0.000 -0.176
71 213.00 1500.04 358 1059 1.520 10000.000 0.000 -0.176
72 216.00 1500.04 352 1022 1.520 10000.000 0.000 -0.176
73 219.00 1500.04 342 1003 1.520 10000.000 0.000 -0.176
74 222.00 1500.04 327 1112 1.520 10000.000 0.000 -0.176
75 225.00 1500.04 329 1066 1.520 10000.000 0.000 -0.176
76 228.00 1500.04 365 965 1.520 10000.000 0.000 -0.176
77 231.00 1500.04 347 1095 1.520 10000.000 0.000 -0.176
78 234.00 1500.04 368 1111 1.520 10000.000 0.000 -0.176
79 237.00 1500.04 330 1068 1.520 10000.000 0.000 -0.176
80 240.00 1500.04 357 1063 1.520 10000.000 0.000 -0.176
81 243.00 1500.04 345 1079 1.520 10000.000 0.000 -0.176
82 246.00 1500.04 350 1062 1.520 10000.000 0.000 -0.176
83 249.00 1500.04 340 1002 1.520 10000.000 0.000 -0.176
84 252.00 1500.04 343 1037 1.520 10000.000 0.000 -0.176
85 255.00 1500.04 353 1116 1.520 10000.000 0.000 -0.176
86 258.00 1500.04 352 1030 1.520 10000.000 0.000 -0.176
87 261.00 1500.04 319 1000 1.520 10000.000 0.000 -0.176
88 264.00 1500.04 371 1073 1.520 10000.000 0.000 -0.176
89 267.00 1500.04 346 1045 1.520 10000.000 0.000 -0.176
90 270.00 1500.04 362 1083 1.520 10000.000 0.000 -0.176
91 273.00 1500.04 358 1010 1.520 10000.000 0.000 -0.176
92 276.00 1500.04 339 1108 1.520 10000.000 0.000 -0.176
93 279.00 1500.04 316 1094 1.520 10000.000 0.000 -0.176
94 282.00 1500.04 342 1052 1.520 10000.000 0.000 -0.176
95 285.00 1500.04 361 1066 1.520 10000.000 0.000 -0.176
96 288.00 1500.04 325 1129 1.520 10000.000 0.000 -0.176
97 291.00 1500.04 324 1030 1.520 10000.000 0.000 -0.176
98 294.00 1500.04 311 1010 1.520 10000.000 0.000 -0.176
99 297.00 1500.04 363 1050 1.520 10000.000 0.000 -0.176
100 300.00 1500.04 343 1081 1.520 10000.000 0.000 -0.176
101 303.00 1500.04 326 1025 1.520 10000.000 0.000 -0.176
102 306.00 1500.04 345 1098 1.520 10000.000 0.000 -0.176
103 309.00 1500.04 344 1060 1.520 10000.000 0.000 -0.176
104 312.00 1500.04 325 1095 1.520 10000.000 0.000 -0.176
105 315.00 1500.04 326 1037 1.520 10000.000 0.000 -0.176
106 318.00 1500.04 355 1049 1.520 10000.000 0.000 -0.176
107 321.00 1500.04 345 1054 1.520 10000.000 0.000 -0.176
108 324.00 1500.04 388 1003 1.520 10000.000 0.000 -0.176
109 327.00 1500.04 345 1049 1.520 10000.000 0.000 -0.176
110 330.00 1500.04 342 1117 1.520 10000.000 0.000 -0.176
111 333.00 1500.04 323 1058 1.520 10000.000 0.000 -0.176
112 336.00 1500.04 334 1042 1.520 10000.000 0.000 -0.176
113 339.00 1500.04 333 1085 1.520 10000.000 0.000 -0.176
114 342.00 1500.04 355 1050 1.520 10000.000 0.000 -0.176
115 345.00 1500.04 331 1018 1.520 10000.000 0.000 -0.176
116 348.00 1500.04 405 1084 1.520 10000.000 0.000 -0.176
117 351.00 1500.04 362 1017 1.520 10000.000 0.000 -0.176
118 354.00 1500.04 366 1063 1.520 10000.000 0.000 -0.176
119 357.00 1500.04 347 1048 1.520 10000.000 0.000 -0.176
120 360.00 1500.04 311 1082 1.520 10000.000 0.000 -0.176
121 363.00 1500.04 346 1070 1.520 10000.000 0.000 -0.176
122 366.00 1500.04 350 1080 1.520 10000.000 0.000 -0.176
123 369.00 1500.04 359 1072 1.520 10000.000 0.000 -0.176
124 372.00 1500.04 356 1094 1.520 10000.000 0.000 -0.176
125 375.00 1500.04 318 1092 1.520 10000.000 0.000 -0.176
126 378.00 1500.04 360 1124 1.520 10000.000 0.000 -0.176
127 381.00 1500.04 351 1117 1.520 10000.000 0.000 -0.176
128 384.00 1500.04 360 1095 1.520 10000.000 0.000 -0.176
129 387.00 1500.04 365 1043 1.520 10000.000 0.000 -0.176
130 390.00 1500.04 348 1068 1.520 10000.000 0.000 -0.176
131 393.00 1500.04 328 1085 1.520 10000.000 0.000 -0.176
132 396.00 1500.04 341 1059 1.520 10000.000 0.000 -0.176
133 399.00 1500.04 314 1053 1.520 10000.000 0.000 -0.176
134 402.00 1500.04 357 1040 1.520 10000.000 0.000 -0.176
135 405.00 1500.04 350 1129 1.520 10000.000 0.000 -0.176
136 408.00 1500.04 378 1090 1.520 10000.000 0.000 -0.176
137 411.00 1500.04 342 981 1.520 10000.000 0.000 -0.176
138 414.00 1500.04 368 1069 1.520 10000.000 0.000 -0.176
139 417.00 1500.04 346 1049 1.520 10000.000 0.000 -0.176
140 420.00 1500.04 364 1074 1.520 10000.000 0.000 -0.176
141 423.00 1500.04 328 1098 1.520 10000.000 0.000 -0.176
142 426.00 1500.04 372 1101 1.520 10000.000 0.000 -0.176
143 429.00 1500.04 336 1051 1.520 10000.000 0.000 -0.176
144 432.00 1500.04 325 1074 1.520 10000.000 0.000 -0.176
