# BinNR microsec tot-time (s)  O-Beam AUX Ampl(V) f(Hz) phase(deg) chi(pos)
0 0.00 1500.01 174 362 1.520 10000.000 0.000 -1.494
1 3.00 1500.01 279 788 1.520 10000.000 0.000 -1.494
2 6.00 1500.01 294 746 1.520 10000.000 0.000 -1.494
3 9.00 1500.01 308 770 1.520 10000.000 0.000 -1.494
4 12.00 1500.01 297 800 1.520 10000.000 0.000 -1.494
5 15.00 1500.01 262 758 1.520 10000.000 0.000 -1.494
6 18.00 1500.01 311 770 1.520 10000.000 0.000 -1.494
7 21.00 1500.01 313 750 1.520 10000.000 0.000 -1.494
8 24.00 1500.01 290 722 1.520 10000.000 0.000 -1.494
9 27.00 1500.01 268 728 1.520 10000.000 0.000 -1.494
10 30.00 1500.01 297 767 1.520 10000.000 0.000 -1.494
11 33.00 1500.01 257 696 1.520 10000.000 0.000 -1.494
12 36.00 1500.01 291 774 1.520 10000.000 0.000 -1.494
13 39.00 1500.01 303 762 1.520 10000.000 0.000 -1.494
14 42.00 1500.01 316 779 1.520 10000.000 0.000 -1.494
15 45.00 1500.01 304 740 1.520 10000.000 0.000 -1.494
16 48.00 1500.01 305 793 1.520 10000.000 0.000 -1.494
17 51.00 1500.01 290 751 1.520 10000.000 0.000 -1.494
18 54.00 1500.01 322 766 1.520 10000.000 0.000 -1.494
19 57.00 1500.01 282 818 1.520 10000.000 0.000 -1.494
20 60.00 1500.01 273 727 1.520 10000.000 0.000 -1.494
21 63.00 1500.01 316 677 1.520 10000.000 0.000 -1.494
22 66.00 1500.01 273 709 1.520 10000.000 0.000 -1.494
23 69.00 1500.01 288 744 1.520 10000.000 0.000 -1.494
24 72.00 1500.01 280 761 1.520 10000.000 0.000 -1.494
25 75.00 1500.01 322 787 1.520 10000.000 0.000 -1.494
26 78.00 1500.01 301 714 1.520 10000.000 0.000 -1.494
27 81.00 1500.01 287 727 1.520 10000.000 0.000 -1.494
28 84.00 1500.01 287 746 1.520 10000.000 0.000 -1.494
29 87.00 1500.01 292 739 1.520 10000.000 0.000 -1.494
30 90.00 1500.01 298 724 1.520 10000.000 0.000 -1.494
31 93.00 1500.01 299 735 1.520 10000.000 0.000 -1.494
32 96.00 1500.01 309 705 1.520 10000.000 0.000 -1.494
33 99.00 1500.01 266 712 1.520 10000.000 0.000 -1.494
34 102.00 1500.01 304 746 1.520 10000.000 0.000 -1.494
35 105.00 1500.01 312 742 1.520 10000.000 0.000 -1.494
36 108.00 1500.01 298 771 1.520 10000.000 0.000 -1.494
37 111.00 1500.01 286 709 1.520 10000.000 0.000 -1.494
38 114.00 1500.01 290 735 1.520 10000.000 0.000 -1.494
39 117.00 1500.01 277 762 1.520 10000.000 0.000 -1.494
40 120.00 1500.01 305 736 1.520 10000.000 0.000 -1.494
41 123.00 1500.01 287 756 1.520 10000.000 0.000 -1.494
42 126.00 1500.01 305 728 1.520 10000.000 0.000 -1.494
43 129.00 1500.01 283 737 1.520 10000.000 0.000 -1.494
44 132.00 1500.01 277 738 1.520 10000.000 0.000 -1.494
45 135.00 1500.01 307 747 1.520 10000.000 0.000 -1.494
46 138.00 1500.01 306 761 1.520 10000.000 0.000 -1.494
47 141.00 1500.01 317 742 1.520 10000.000 0.000 -1.494
48 144.00 1500.01 309 786 1.520 10000.000 0.000 -1.494
49 147.00 1500.01 304 744 1.520 10000.000 0.000 -1.494
50 150.00 1500.01 306 738 1.520 10000.000 0.000 -1.494
51 153.00 1500.01 293 747 1.520 10000.000 0.000 -1.494
52 156.00 1500.01 296 795 1.520 10000.000 0.000 -1.494
53 159.00 1500.01 312 733 1.520 10000.000 0.000 -1.494
54 162.00 1500.01 301 718 1.520 10000.000 0.000 -1.494
55 165.00 1500.01 281 773 1.520 10000.000 0.000 -1.494
56 168.00 1500.01 293 772 1.520 10000.000 0.000 -1.494
57 171.00 1500.01 307 718 1.520 10000.000 0.000 -1.494
58 174.00 1500.01 285 767 1.520 10000.000 0.000 -1.494
59 177.00 1500.01 288 751 1.520 10000.000 0.000 -1.494
60 180.00 1500.01 320 702 1.520 10000.000 0.000 -1.494
61 183.00 1500.01 315 780 1.520 10000.000 0.000 -1.494
62 186.00 1500.01 337 749 1.520 10000.000 0.000 -1.494
63 189.00 1500.01 267 705 1.520 10000.000 0.000 -1.494
64 192.00 1500.01 308 693 1.520 10000.000 0.000 -1.494
65 195.00 1500.01 296 703 1.520 10000.000 0.000 -1.494
66 198.00 1500.01 300 737 1.520 10000.000 0.000 -1.494
67 201.00 1500.01 305 715 1.520 10000.000 0.000 -1.494
68 204.00 1500.01 326 840 1.520 10000.000 0.000 -1.494
69 207.00 1500.01 300 758 1.520 10000.000 0.000 -1.494
70 210.00 1500.01 316 686 1.520 10000.000 0.000 -1.494
71 213.00 1500.01 307 692 1.520 10000.000 0.000 -1.494
72 216.00 1500.01 296 771 1.520 10000.000 0.000 -1.494
73 219.00 1500.01 301 687 1.520 10000.000 0.000 -1.494
74 222.00 1500.01 317 760 1.520 10000.000 0.000 -1.494
75 225.00 1500.01 291 776 1.520 10000.000 0.000 -1.494
76 228.00 1500.01 282 797 1.520 10000.000 0.000 -1.494
77 231.00 1500.01 276 709 1.520 10000.000 0.000 -1.494
78 234.00 1500.01 290 742 1.520 10000.000 0.000 -1.494
79 237.00 1500.01 285 759 1.520 10000.000 0.000 -1.494
80 240.00 1500.01 272 721 1.520 10000.000 0.000 -1.494
81 243.00 1500.01 272 744 1.520 10000.000 0.000 -1.494
82 246.00 1500.01 307 707 1.520 10000.000 0.000 -1.494
83 249.00 1500.01 297 741 1.520 10000.000 0.000 -1.494
84 252.00 1500.01 299 691 1.520 10000.000 0.000 -1.494
85 255.00 1500.01 307 699 1.520 10000.000 0.000 -1.494
86 258.00 1500.01 335 703 1.520 10000.000 0.000 -1.494
87 261.00 1500.01 349 719 1.520 10000.000 0.000 -1.494
88 264.00 1500.01 297 781 1.520 10000.000 0.000 -1.494
89 267.00 1500.01 280 743 1.520 10000.000 0.000 -1.494
90 270.00 1500.01 270 758 1.520 10000.000 0.000 -1.494
91 273.00 1500.01 320 799 1.520 10000.000 0.000 -1.494
92 276.00 1500.01 322 746 1.520 10000.000 0.000 -1.494
93 279.00 1500.01 287 726 1.520 10000.000 0.000 -1.494
94 282.00 1500.01 290 761 1.520 10000.000 0.000 -1.494
95 285.00 1500.01 292 751 1.520 10000.000 0.000 -1.494
96 288.00 1500.01 297 763 1.520 10000.000 0.000 -1.494
97 291.00 1500.01 321 723 1.520 10000.000 0.000 -1.494
98 294.00 1500.01 293 725 1.520 10000.000 0.000 -1.494
99 297.00 1500.01 277 716 1.520 10000.000 0.000 -1.494
100 300.00 1500.01 319 719 1.520 10000.000 0.000 -1.494
101 303.00 1500.01 302 686 1.520 10000.000 0.000 -1.494
102 306.00 1500.01 328 741 1.520 10000.000 0.000 -1.494
103 309.00 1500.01 310 732 1.520 10000.000 0.000 -1.494
104 312.00 1500.01 312 721 1.520 10000.000 0.000 -1.494
105 315.00 1500.01 280 726 1.520 10000.000 0.000 -1.494
106 318.00 1500.01 284 747 1.520 10000.000 0.000 -1.494
107 321.00 1500.01 289 760 1.520 10000.000 0.000 -1.494
108 324.00 1500.01 306 784 1.520 10000.000 0.000 -1.494
109 327.00 1500.01 298 720 1.520 10000.000 0.000 -1.494
110 330.00 1500.01 292 712 1.520 10000.000 0.000 -1.494
111 333.00 1500.01 292 733 1.520 10000.000 0.000 -1.494
112 336.00 1500.01 296 770 1.520 10000.000 0.000 -1.494
113 339.00 1500.01 272 777 1.520 10000.000 0.000 -1.494
114 342.00 1500.01 319 736 1.520 10000.000 0.000 -1.494
115 345.00 1500.01 285 784 1.520 10000.000 0.000 -1.494
116 348.00 1500.01 293 764 1.520 10000.000 0.000 -1.494
117 351.00 1500.01 263 728 1.520 10000.000 0.000 -1.494
118 354.00 1500.01 342 791 1.520 10000.000 0.000 -1.494
119 357.00 1500.01 301 717 1.520 10000.000 0.000 -1.494
120 360.00 1500.01 315 760 1.520 10000.000 0.000 -1.494
121 363.00 1500.01 275 746 1.520 10000.000 0.000 -1.494
122 366.00 1500.01 325 702 1.520 10000.000 0.000 -1.494
123 369.00 1500.01 317 711 1.520 10000.000 0.000 -1.494
124 372.00 1500.01 335 682 1.520 10000.000 0.000 -1.494
125 375.00 1500.01 313 714 1.520 10000.000 0.000 -1.494
126 378.00 1500.01 283 757 1.520 10000.000 0.000 -1.494
127 381.00 1500.01 296 797 1.520 10000.000 0.000 -1.494
128 384.00 1500.01 283 742 1.520 10000.000 0.000 -1.494
129 387.00 1500.01 302 800 1.520 10000.000 0.000 -1.494
130 390.00 1500.01 301 715 1.520 10000.000 0.000 -1.494
131 393.00 1500.01 316 748 1.520 10000.000 0.000 -1.494
132 396.00 1500.01 319 719 1.520 10000.000 0.000 -1.494
133 399.00 1500.01 281 746 1.520 10000.000 0.000 -1.494
134 402.00 1500.01 298 743 1.520 10000.000 0.000 -1.494
135 405.00 1500.01 303 745 1.520 10000.000 0.000 -1.494
136 408.00 1500.01 284 733 1.520 10000.000 0.000 -1.494
137 411.00 1500.01 311 728 1.520 10000.000 0.000 -1.494
138 414.00 1500.01 284 718 1.520 10000.000 0.000 -1.494
139 417.00 1500.01 299 726 1.520 10000.000 0.000 -1.494
140 420.00 1500.01 321 763 1.520 10000.000 0.000 -1.494
141 423.00 1500.01 277 741 1.520 10000.000 0.000 -1.494
142 426.00 1500.01 313 734 1.520 10000.000 0.000 -1.494
143 429.00 1500.01 296 734 1.520 10000.000 0.000 -1.494
144 432.00 1500.01 291 735 1.520 10000.000 0.000 -1.494
