# BinNR microsec tot-time (s)  O-Beam AUX Ampl(V) f(Hz) phase(deg) chi(pos)
0 0.00 1500.02 80 147 1.520 10000.000 0.000 -1.165
1 3.00 1500.02 193 295 1.520 10000.000 0.000 -1.165
2 6.00 1500.02 192 293 1.520 10000.000 0.000 -1.165
3 9.00 1500.02 193 294 1.520 10000.000 0.000 -1.165
4 12.00 1500.02 185 266 1.520 10000.000 0.000 -1.165
5 15.00 1500.02 159 260 1.520 10000.000 0.000 -1.165
6 18.00 1500.02 175 285 1.520 10000.000 0.000 -1.165
7 21.00 1500.02 181 307 1.520 10000.000 0.000 -1.165
8 24.00 1500.02 159 287 1.520 10000.000 0.000 -1.165
9 27.00 1500.02 163 252 1.520 10000.000 0.000 -1.165
10 30.00 1500.02 196 286 1.520 10000.000 0.000 -1.165
11 33.00 1500.02 173 306 1.520 10000.000 0.000 -1.165
12 36.00 1500.02 176 291 1.520 10000.000 0.000 -1.165
13 39.00 1500.02 162 266 1.520 10000.000 0.000 -1.165
14 42.00 1500.02 189 284 1.520 10000.000 0.000 -1.165
15 45.00 1500.02 192 266 1.520 10000.000 0.000 -1.165
16 48.00 1500.02 167 264 1.520 10000.000 0.000 -1.165
17 51.00 1500.02 165 273 1.520 10000.000 0.000 -1.165
18 54.00 1500.02 157 292 1.520 10000.000 0.000 -1.165
19 57.00 1500.02 149 274 1.520 10000.000 0.000 -1.165
20 60.00 1500.02 189 290 1.520 10000.000 0.000 -1.165
21 63.00 1500.02 191 266 1.520 10000.000 0.000 -1.165
22 66.00 1500.02 182 273 1.520 10000.000 0.000 -1.165
23 69.00 1500.02 144 286 1.520 10000.000 0.000 -1.165
24 72.00 1500.02 182 277 1.520 10000.000 0.000 -1.165
25 75.00 1500.02 185 292 1.520 10000.000 0.000 -1.165
26 78.00 1500.02 164 276 1.520 10000.000 0.000 -1.165
27 81.00 1500.02 166 269 1.520 10000.000 0.000 -1.165
28 84.00 1500.02 159 297 1.520 10000.000 0.000 -1.165
29 87.00 1500.02 191 269 1.520 10000.000 0.000 -1.165
30 90.00 1500.02 199 308 1.520 10000.000 0.000 -1.165
31 93.00 1500.02 187 277 1.520 10000.000 0.000 -1.165
32 96.00 1500.02 167 278 1.520 10000.000 0.000 -1.165
33 99.00 1500.02 182 288 1.520 10000.000 0.000 -1.165
34 102.00 1500.02 196 309 1.520 10000.000 0.000 -1.165
35 105.00 1500.02 165 260 1.520 10000.000 0.000 -1.165
36 108.00 1500.02 165 297 1.520 10000.000 0.000 -1.165
37 111.00 1500.02 192 259 1.520 10000.000 0.000 -1.165
38 114.00 1500.02 187 312 1.520 10000.000 0.000 -1.165
39 117.00 1500.02 164 318 1.520 10000.000 0.000 -1.165
40 120.00 1500.02 210 293 1.520 10000.000 0.000 -1.165
41 123.00 1500.02 174 252 1.520 10000.000 0.000 -1.165
42 126.00 1500.02 165 272 1.520 10000.000 0.000 -1.165
43 129.00 1500.02 179 306 1.520 10000.000 0.000 -1.165
44 132.00 1500.02 167 296 1.520 10000.000 0.000 -1.165
45 135.00 1500.02 189 282 1.520 10000.000 0.000 -1.165
46 138.00 1500.02 170 306 1.520 10000.000 0.000 -1.165
47 141.00 1500.02 172 258 1.520 10000.000 0.000 -1.165
48 144.00 1500.02 206 272 1.520 10000.000 0.000 -1.165
49 147.00 1500.02 185 257 1.520 10000.000 0.000 -1.165
50 150.00 1500.02 195 290 1.520 10000.000 0.000 -1.165
51 153.00 1500.02 195 289 1.520 10000.000 0.000 -1.165
52 156.00 1500.02 179 243 1.520 10000.000 0.000 -1.165
53 159.00 1500.02 198 270 1.520 10000.000 0.000 -1.165
54 162.00 1500.02 173 319 1.520 10000.000 0.000 -1.165
55 165.00 1500.02 207 290 1.520 10000.000 0.000 -1.165
56 168.00 1500.02 200 257 1.520 10000.000 0.000 -1.165
57 171.00 1500.02 180 292 1.520 10000.000 0.000 -1.165
58 174.00 1500.02 167 270 1.520 10000.000 0.000 -1.165
59 177.00 1500.02 174 299 1.520 10000.000 0.000 -1.165
60 180.00 1500.02 197 317 1.520 10000.000 0.000 -1.165
61 183.00 1500.02 188 271 1.520 10000.000 0.000 -1.165
62 186.00 1500.02 188 269 1.520 10000.000 0.000 -1.165
63 189.00 1500.02 197 244 1.520 10000.000 0.000 -1.165
64 192.00 1500.02 177 293 1.520 10000.000 0.000 -1.165
65 195.00 1500.02 183 248 1.520 10000.000 0.000 -1.165
66 198.00 1500.02 176 272 1.520 10000.000 0.000 -1.165
67 201.00 1500.02 191 283 1.520 10000.000 0.000 -1.165
68 204.00 1500.02 170 281 1.520 10000.000 0.000 -1.165
69 207.00 1500.02 179 300 1.520 10000.000 0.000 -1.165
70 210.00 1500.02 179 285 1.520 10000.000 0.000 -1.165
71 213.00 1500.02 169 259 1.520 10000.000 0.000 -1.165
72 216.00 1500.02 182 317 1.520 10000.000 0.000 -1.165
73 219.00 1500.02 170 297 1.520 10000.000 0.000 -1.165
74 222.00 1500.02 185 283 1.520 10000.000 0.000 -1.165
75 225.00 1500.02 173 269 1.520 10000.000 0.000 -1.165
76 228.00 1500.02 190 304 1.520 10000.000 0.000 -1.165
77 231.00 1500.02 172 262 1.520 10000.000 0.000 -1.165
78 234.00 1500.02 153 258 1.520 10000.000 0.000 -1.165
79 237.00 1500.02 162 287 1.520 10000.000 0.000 -1.165
80 240.00 1500.02 191 280 1.520 10000.000 0.000 -1.165
81 243.00 1500.02 206 297 1.520 10000.000 0.000 -1.165
82 246.00 1500.02 179 282 1.520 10000.000 0.000 -1.165
83 249.00 1500.02 165 258 1.520 10000.000 0.000 -1.165
84 252.00 1500.02 190 294 1.520 10000.000 0.000 -1.165
85 255.00 1500.02 168 278 1.520 10000.000 0.000 -1.165
86 258.00 1500.02 189 327 1.520 10000.000 0.000 -1.165
87 261.00 1500.02 193 273 1.520 10000.000 0.000 -1.165
88 264.00 1500.02 202 280 1.520 10000.000 0.000 -1.165
89 267.00 1500.02 177 271 1.520 10000.000 0.000 -1.165
90 270.00 1500.02 183 299 1.520 10000.000 0.000 -1.165
91 273.00 1500.02 175 284 1.520 10000.000 0.000 -1.165
92 276.00 1500.02 198 296 1.520 10000.000 0.000 -1.165
93 279.00 1500.02 192 263 1.520 10000.000 0.000 -1.165
94 282.00 1500.02 187 286 1.520 10000.000 0.000 -1.165
95 285.00 1500.02 164 247 1.520 10000.000 0.000 -1.165
96 288.00 1500.02 183 267 1.520 10000.000 0.000 -1.165
97 291.00 1500.02 156 288 1.520 10000.000 0.000 -1.165
98 294.00 1500.02 188 279 1.520 10000.000 0.000 -1.165
99 297.00 1500.02 164 277 1.520 10000.000 0.000 -1.165
100 300.00 1500.02 187 311 1.520 10000.000 0.000 -1.165
101 303.00 1500.02 200 299 1.520 10000.000 0.000 -1.165
102 306.00 1500.02 176 291 1.520 10000.000 0.000 -1.165
103 309.00 1500.02 150 283 1.520 10000.000 0.000 -1.165
104 312.00 1500.02 192 293 1.520 10000.000 0.000 -1.165
105 315.00 1500.02 180 277 1.520 10000.000 0.000 -1.165
106 318.00 1500.02 206 304 1.520 10000.000 0.000 -1.165
107 321.00 1500.02 185 291 1.520 10000.000 0.000 -1.165
108 324.00 1500.02 180 290 1.520 10000.000 0.000 -1.165
109 327.00 1500.02 195 275 1.520 10000.000 0.000 -1.165
110 330.00 1500.02 173 299 1.520 10000.000 0.000 -1.165
111 333.00 1500.02 200 281 1.520 10000.000 0.000 -1.165
112 336.00 1500.02 182 290 1.520 10000.000 0.000 -1.165
113 339.00 1500.02 179 296 1.520 10000.000 0.000 -1.165
114 342.00 1500.02 183 292 1.520 10000.000 0.000 -1.165
115 345.00 1500.02 186 278 1.520 10000.000 0.000 -1.165
116 348.00 1500.02 185 289 1.520 10000.000 0.000 -1.165
117 351.00 1500.02 171 281 1.520 10000.000 0.000 -1.165
118 354.00 1500.02 181 289 1.520 10000.000 0.000 -1.165
119 357.00 1500.02 187 310 1.520 10000.000 0.000 -1.165
120 360.00 1500.02 174 271 1.520 10000.000 0.000 -1.165
121 363.00 1500.02 170 263 1.520 10000.000 0.000 -1.165
122 366.00 1500.02 190 259 1.520 10000.000 0.000 -1.165
123 369.00 1500.02 179 253 1.520 10000.000 0.000 -1.165
124 372.00 1500.02 174 281 1.520 10000.000 0.000 -1.165
125 375.00 1500.02 182 271 1.520 10000.000 0.000 -1.165
126 378.00 1500.02 200 267 1.520 10000.000 0.000 -1.165
127 381.00 1500.02 187 287 1.520 10000.000 0.000 -1.165
128 384.00 1500.02 179 297 1.520 10000.000 0.000 -1.165
129 387.00 1500.02 154 262 1.520 10000.000 0.000 -1.165
130 390.00 1500.02 185 312 1.520 10000.000 0.000 -1.165
131 393.00 1500.02 169 288 1.520 10000.000 0.000 -1.165
132 396.00 1500.02 174 283 1.520 10000.000 0.000 -1.165
133 399.00 1500.02 173 280 1.520 10000.000 0.000 -1.165
134 402.00 1500.02 182 290 1.520 10000.000 0.000 -1.165
135 405.00 1500.02 166 284 1.520 10000.000 0.000 -1.165
136 408.00 1500.02 183 289 1.520 10000.000 0.000 -1.165
137 411.00 1500.02 167 288 1.520 10000.000 0.000 -1.165
138 414.00 1500.02 164 261 1.520 10000.000 0.000 -1.165
139 417.00 1500.02 173 298 1.520 10000.000 0.000 -1.165
140 420.00 1500.02 183 269 1.520 10000.000 0.000 -1.165
141 423.00 1500.02 206 291 1.520 10000.000 0.000 -1.165
142 426.00 1500.02 192 267 1.520 10000.000 0.000 -1.165
143 429.00 1500.02 166 252 1.520 10000.000 0.000 -1.165
144 432.00 1500.02 206 264 1.520 10000.000 0.000 -1.165
