# BinNR microsec tot-time (s)  O-Beam AUX Ampl_1(V) f_1(Hz) phase_1(deg) Ampl_2(V) f_2(Hz) phase_2(deg) chi(pos)
0 0.00 1200.00 84 236 0.835 3.100 10000.000 0.000
1 3.00 1200.00 206 413 0.835 3.100 10000.000 0.000
2 6.00 1200.00 177 429 0.835 3.100 10000.000 0.000
3 9.00 1200.00 166 440 0.835 3.100 10000.000 0.000
4 12.00 1200.00 128 390 0.835 3.100 10000.000 0.000
5 15.00 1200.00 119 439 0.835 3.100 10000.000 0.000
6 18.00 1200.00 109 431 0.835 3.100 10000.000 0.000
7 21.00 1200.00 100 473 0.835 3.100 10000.000 0.000
8 24.00 1200.00 85 453 0.835 3.100 10000.000 0.000
9 27.00 1200.00 104 419 0.835 3.100 10000.000 0.000
10 30.00 1200.00 93 481 0.835 3.100 10000.000 0.000
11 33.00 1200.00 84 438 0.835 3.100 10000.000 0.000
12 36.00 1200.00 88 460 0.835 3.100 10000.000 0.000
13 39.00 1200.00 83 481 0.835 3.100 10000.000 0.000
14 42.00 1200.00 85 407 0.835 3.100 10000.000 0.000
15 45.00 1200.00 95 449 0.835 3.100 10000.000 0.000
16 48.00 1200.00 97 437 0.835 3.100 10000.000 0.000
17 51.00 1200.00 118 435 0.835 3.100 10000.000 0.000
18 54.00 1200.00 125 414 0.835 3.100 10000.000 0.000
19 57.00 1200.00 135 460 0.835 3.100 10000.000 0.000
20 60.00 1200.00 145 423 0.835 3.100 10000.000 0.000
21 63.00 1200.00 173 409 0.835 3.100 10000.000 0.000
22 66.00 1200.00 177 439 0.835 3.100 10000.000 0.000
23 69.00 1200.00 227 447 0.835 3.100 10000.000 0.000
24 72.00 1200.00 225 404 0.835 3.100 10000.000 0.000
25 75.00 1200.00 240 413 0.835 3.100 10000.000 0.000
26 78.00 1200.00 232 466 0.835 3.100 10000.000 0.000
27 81.00 1200.00 262 407 0.835 3.100 10000.000 0.000
28 84.00 1200.00 291 501 0.835 3.100 10000.000 0.000
29 87.00 1200.00 225 523 0.835 3.100 10000.000 0.000
30 90.00 1200.00 222 648 0.835 3.100 10000.000 0.000
31 93.00 1200.00 215 655 0.835 3.100 10000.000 0.000
32 96.00 1200.00 213 764 0.835 3.100 10000.000 0.000
33 99.00 1200.00 222 727 0.835 3.100 10000.000 0.000
34 102.00 1200.00 187 777 0.835 3.100 10000.000 0.000
35 105.00 1200.00 176 729 0.835 3.100 10000.000 0.000
36 108.00 1200.00 158 672 0.835 3.100 10000.000 0.000
37 111.00 1200.00 132 563 0.835 3.100 10000.000 0.000
38 114.00 1200.00 95 460 0.835 3.100 10000.000 0.000
39 117.00 1200.00 114 358 0.835 3.100 10000.000 0.000
40 120.00 1200.00 102 273 0.835 3.100 10000.000 0.000
41 123.00 1200.00 79 209 0.835 3.100 10000.000 0.000
42 126.00 1200.00 103 199 0.835 3.100 10000.000 0.000
43 129.00 1200.00 82 119 0.835 3.100 10000.000 0.000
44 132.00 1200.00 79 165 0.835 3.100 10000.000 0.000
45 135.00 1200.00 90 136 0.835 3.100 10000.000 0.000
46 138.00 1200.00 86 141 0.835 3.100 10000.000 0.000
47 141.00 1200.00 108 158 0.835 3.100 10000.000 0.000
48 144.00 1200.00 82 158 0.835 3.100 10000.000 0.000
49 147.00 1200.00 84 176 0.835 3.100 10000.000 0.000
50 150.00 1200.00 96 188 0.835 3.100 10000.000 0.000
51 153.00 1200.00 117 237 0.835 3.100 10000.000 0.000
52 156.00 1200.00 134 294 0.835 3.100 10000.000 0.000
53 159.00 1200.00 137 337 0.835 3.100 10000.000 0.000
54 162.00 1200.00 153 432 0.835 3.100 10000.000 0.000
55 165.00 1200.00 174 494 0.835 3.100 10000.000 0.000
56 168.00 1200.00 192 588 0.835 3.100 10000.000 0.000
57 171.00 1200.00 224 679 0.835 3.100 10000.000 0.000
58 174.00 1200.00 206 765 0.835 3.100 10000.000 0.000
59 177.00 1200.00 236 786 0.835 3.100 10000.000 0.000
60 180.00 1200.00 212 780 0.835 3.100 10000.000 0.000
61 183.00 1200.00 213 846 0.835 3.100 10000.000 0.000
62 186.00 1200.00 206 861 0.835 3.100 10000.000 0.000
63 189.00 1200.00 190 838 0.835 3.100 10000.000 0.000
64 192.00 1200.00 168 785 0.835 3.100 10000.000 0.000
65 195.00 1200.00 142 818 0.835 3.100 10000.000 0.000
66 198.00 1200.00 160 773 0.835 3.100 10000.000 0.000
67 201.00 1200.00 132 718 0.835 3.100 10000.000 0.000
68 204.00 1200.00 121 668 0.835 3.100 10000.000 0.000
69 207.00 1200.00 120 593 0.835 3.100 10000.000 0.000
70 210.00 1200.00 134 497 0.835 3.100 10000.000 0.000
71 213.00 1200.00 107 368 0.835 3.100 10000.000 0.000
72 216.00 1200.00 110 352 0.835 3.100 10000.000 0.000
73 219.00 1200.00 124 261 0.835 3.100 10000.000 0.000
74 222.00 1200.00 144 236 0.835 3.100 10000.000 0.000
75 225.00 1200.00 137 192 0.835 3.100 10000.000 0.000
76 228.00 1200.00 149 180 0.835 3.100 10000.000 0.000
77 231.00 1200.00 124 139 0.835 3.100 10000.000 0.000
78 234.00 1200.00 141 137 0.835 3.100 10000.000 0.000
79 237.00 1200.00 136 137 0.835 3.100 10000.000 0.000
80 240.00 1200.00 126 130 0.835 3.100 10000.000 0.000
81 243.00 1200.00 129 141 0.835 3.100 10000.000 0.000
82 246.00 1200.00 148 183 0.835 3.100 10000.000 0.000
83 249.00 1200.00 139 190 0.835 3.100 10000.000 0.000
84 252.00 1200.00 162 226 0.835 3.100 10000.000 0.000
85 255.00 1200.00 151 283 0.835 3.100 10000.000 0.000
86 258.00 1200.00 151 327 0.835 3.100 10000.000 0.000
87 261.00 1200.00 151 425 0.835 3.100 10000.000 0.000
88 264.00 1200.00 142 505 0.835 3.100 10000.000 0.000
89 267.00 1200.00 129 554 0.835 3.100 10000.000 0.000
90 270.00 1200.00 153 629 0.835 3.100 10000.000 0.000
91 273.00 1200.00 120 756 0.835 3.100 10000.000 0.000
92 276.00 1200.00 130 799 0.835 3.100 10000.000 0.000
93 279.00 1200.00 149 813 0.835 3.100 10000.000 0.000
94 282.00 1200.00 145 823 0.835 3.100 10000.000 0.000
95 285.00 1200.00 145 759 0.835 3.100 10000.000 0.000
96 288.00 1200.00 130 732 0.835 3.100 10000.000 0.000
97 291.00 1200.00 142 620 0.835 3.100 10000.000 0.000
98 294.00 1200.00 145 497 0.835 3.100 10000.000 0.000
99 297.00 1200.00 150 455 0.835 3.100 10000.000 0.000
100 300.00 1200.00 120 400 0.835 3.100 10000.000 0.000
101 303.00 1200.00 121 354 0.835 3.100 10000.000 0.000
102 306.00 1200.00 133 323 0.835 3.100 10000.000 0.000
103 309.00 1200.00 146 311 0.835 3.100 10000.000 0.000
104 312.00 1200.00 148 362 0.835 3.100 10000.000 0.000
105 315.00 1200.00 129 364 0.835 3.100 10000.000 0.000
106 318.00 1200.00 169 441 0.835 3.100 10000.000 0.000
107 321.00 1200.00 129 390 0.835 3.100 10000.000 0.000
108 324.00 1200.00 133 459 0.835 3.100 10000.000 0.000
109 327.00 1200.00 132 470 0.835 3.100 10000.000 0.000
110 330.00 1200.00 160 430 0.835 3.100 10000.000 0.000
111 333.00 1200.00 135 464 0.835 3.100 10000.000 0.000
112 336.00 1200.00 151 452 0.835 3.100 10000.000 0.000
113 339.00 1200.00 147 440 0.835 3.100 10000.000 0.000
114 342.00 1200.00 152 424 0.835 3.100 10000.000 0.000
115 345.00 1200.00 121 477 0.835 3.100 10000.000 0.000
116 348.00 1200.00 155 434 0.835 3.100 10000.000 0.000
117 351.00 1200.00 149 424 0.835 3.100 10000.000 0.000
118 354.00 1200.00 154 396 0.835 3.100 10000.000 0.000
119 357.00 1200.00 150 425 0.835 3.100 10000.000 0.000
120 360.00 1200.00 125 418 0.835 3.100 10000.000 0.000
121 363.00 1200.00 142 418 0.835 3.100 10000.000 0.000
122 366.00 1200.00 145 435 0.835 3.100 10000.000 0.000
123 369.00 1200.00 114 428 0.835 3.100 10000.000 0.000
124 372.00 1200.00 108 426 0.835 3.100 10000.000 0.000
125 375.00 1200.00 144 424 0.835 3.100 10000.000 0.000
126 378.00 1200.00 149 461 0.835 3.100 10000.000 0.000
127 381.00 1200.00 145 416 0.835 3.100 10000.000 0.000
128 384.00 1200.00 168 438 0.835 3.100 10000.000 0.000
129 387.00 1200.00 178 454 0.835 3.100 10000.000 0.000
130 390.00 1200.00 186 417 0.835 3.100 10000.000 0.000
131 393.00 1200.00 211 432 0.835 3.100 10000.000 0.000
132 396.00 1200.00 204 447 0.835 3.100 10000.000 0.000
133 399.00 1200.00 190 467 0.835 3.100 10000.000 0.000
134 402.00 1200.00 220 428 0.835 3.100 10000.000 0.000
