# BinNR microsec tot-time (s)  O-Beam AUX Ampl(V) f(Hz) phase(deg) chi(pos)
0 0.00 1200.02 183 468 1.100 10000.000 0.000 -0.516
1 3.00 1200.02 328 908 1.100 10000.000 0.000 -0.516
2 6.00 1200.02 353 941 1.100 10000.000 0.000 -0.516
3 9.00 1200.02 332 982 1.100 10000.000 0.000 -0.516
4 12.00 1200.02 359 997 1.100 10000.000 0.000 -0.516
5 15.00 1200.02 360 918 1.100 10000.000 0.000 -0.516
6 18.00 1200.02 350 1010 1.100 10000.000 0.000 -0.516
7 21.00 1200.02 350 965 1.100 10000.000 0.000 -0.516
8 24.00 1200.02 361 921 1.100 10000.000 0.000 -0.516
9 27.00 1200.02 358 911 1.100 10000.000 0.000 -0.516
10 30.00 1200.02 321 918 1.100 10000.000 0.000 -0.516
11 33.00 1200.02 364 977 1.100 10000.000 0.000 -0.516
12 36.00 1200.02 355 985 1.100 10000.000 0.000 -0.516
13 39.00 1200.02 361 916 1.100 10000.000 0.000 -0.516
14 42.00 1200.02 359 944 1.100 10000.000 0.000 -0.516
15 45.00 1200.02 346 951 1.100 10000.000 0.000 -0.516
16 48.00 1200.02 350 910 1.100 10000.000 0.000 -0.516
17 51.00 1200.02 333 935 1.100 10000.000 0.000 -0.516
18 54.00 1200.02 350 993 1.100 10000.000 0.000 -0.516
19 57.00 1200.02 325 972 1.100 10000.000 0.000 -0.516
20 60.00 1200.02 361 998 1.100 10000.000 0.000 -0.516
21 63.00 1200.02 344 906 1.100 10000.000 0.000 -0.516
22 66.00 1200.02 351 998 1.100 10000.000 0.000 -0.516
23 69.00 1200.02 330 949 1.100 10000.000 0.000 -0.516
24 72.00 1200.02 375 1031 1.100 10000.000 0.000 -0.516
25 75.00 1200.02 324 976 1.100 10000.000 0.000 -0.516
26 78.00 1200.02 365 1022 1.100 10000.000 0.000 -0.516
27 81.00 1200.02 338 913 1.100 10000.000 0.000 -0.516
28 84.00 1200.02 334 972 1.100 10000.000 0.000 -0.516
29 87.00 1200.02 338 969 1.100 10000.000 0.000 -0.516
30 90.00 1200.02 337 990 1.100 10000.000 0.000 -0.516
31 93.00 1200.02 331 1008 1.100 10000.000 0.000 -0.516
32 96.00 1200.02 334 979 1.100 10000.000 0.000 -0.516
33 99.00 1200.02 336 990 1.100 10000.000 0.000 -0.516
34 102.00 1200.02 349 1008 1.100 10000.000 0.000 -0.516
35 105.00 1200.02 368 925 1.100 10000.000 0.000 -0.516
36 108.00 1200.02 328 929 1.100 10000.000 0.000 -0.516
37 111.00 1200.02 348 987 1.100 10000.000 0.000 -0.516
38 114.00 1200.02 352 1032 1.100 10000.000 0.000 -0.516
39 117.00 1200.02 348 980 1.100 10000.000 0.000 -0.516
40 120.00 1200.02 351 955 1.100 10000.000 0.000 -0.516
41 123.00 1200.02 331 874 1.100 10000.000 0.000 -0.516
42 126.00 1200.02 363 967 1.100 10000.000 0.000 -0.516
43 129.00 1200.02 336 982 1.100 10000.000 0.000 -0.516
44 132.00 1200.02 326 918 1.100 10000.000 0.000 -0.516
45 135.00 1200.02 324 915 1.100 10000.000 0.000 -0.516
46 138.00 1200.02 355 899 1.100 10000.000 0.000 -0.516
47 141.00 1200.02 314 903 1.100 10000.000 0.000 -0.516
48 144.00 1200.02 332 951 1.100 10000.000 0.000 -0.516
49 147.00 1200.02 358 950 1.100 10000.000 0.000 -0.516
50 150.00 1200.02 343 892 1.100 10000.000 0.000 -0.516
51 153.00 1200.02 352 892 1.100 10000.000 0.000 -0.516
52 156.00 1200.02 418 970 1.100 10000.000 0.000 -0.516
53 159.00 1200.02 350 919 1.100 10000.000 0.000 -0.516
54 162.00 1200.02 342 1002 1.100 10000.000 0.000 -0.516
55 165.00 1200.02 360 950 1.100 10000.000 0.000 -0.516
56 168.00 1200.02 345 1008 1.100 10000.000 0.000 -0.516
57 171.00 1200.02 362 978 1.100 10000.000 0.000 -0.516
58 174.00 1200.02 332 972 1.100 10000.000 0.000 -0.516
59 177.00 1200.02 330 921 1.100 10000.000 0.000 -0.516
60 180.00 1200.02 320 1015 1.100 10000.000 0.000 -0.516
61 183.00 1200.02 316 951 1.100 10000.000 0.000 -0.516
62 186.00 1200.02 350 1004 1.100 10000.000 0.000 -0.516
63 189.00 1200.02 352 980 1.100 10000.000 0.000 -0.516
64 192.00 1200.02 353 955 1.100 10000.000 0.000 -0.516
65 195.00 1200.02 341 976 1.100 10000.000 0.000 -0.516
66 198.00 1200.02 358 991 1.100 10000.000 0.000 -0.516
67 201.00 1200.02 334 993 1.100 10000.000 0.000 -0.516
68 204.00 1200.02 362 973 1.100 10000.000 0.000 -0.516
69 207.00 1200.02 378 937 1.100 10000.000 0.000 -0.516
70 210.00 1200.02 342 962 1.100 10000.000 0.000 -0.516
71 213.00 1200.02 335 939 1.100 10000.000 0.000 -0.516
72 216.00 1200.02 335 947 1.100 10000.000 0.000 -0.516
73 219.00 1200.02 371 918 1.100 10000.000 0.000 -0.516
74 222.00 1200.02 353 960 1.100 10000.000 0.000 -0.516
75 225.00 1200.02 368 993 1.100 10000.000 0.000 -0.516
76 228.00 1200.02 361 893 1.100 10000.000 0.000 -0.516
77 231.00 1200.02 326 936 1.100 10000.000 0.000 -0.516
78 234.00 1200.02 360 936 1.100 10000.000 0.000 -0.516
79 237.00 1200.02 354 901 1.100 10000.000 0.000 -0.516
80 240.00 1200.02 347 952 1.100 10000.000 0.000 -0.516
81 243.00 1200.02 353 910 1.100 10000.000 0.000 -0.516
82 246.00 1200.02 339 977 1.100 10000.000 0.000 -0.516
83 249.00 1200.02 340 913 1.100 10000.000 0.000 -0.516
84 252.00 1200.02 339 996 1.100 10000.000 0.000 -0.516
85 255.00 1200.02 336 966 1.100 10000.000 0.000 -0.516
86 258.00 1200.02 318 938 1.100 10000.000 0.000 -0.516
87 261.00 1200.02 362 953 1.100 10000.000 0.000 -0.516
88 264.00 1200.02 341 937 1.100 10000.000 0.000 -0.516
89 267.00 1200.02 348 968 1.100 10000.000 0.000 -0.516
90 270.00 1200.02 332 969 1.100 10000.000 0.000 -0.516
91 273.00 1200.02 357 972 1.100 10000.000 0.000 -0.516
92 276.00 1200.02 329 949 1.100 10000.000 0.000 -0.516
93 279.00 1200.02 335 1019 1.100 10000.000 0.000 -0.516
94 282.00 1200.02 344 1006 1.100 10000.000 0.000 -0.516
95 285.00 1200.02 323 1016 1.100 10000.000 0.000 -0.516
96 288.00 1200.02 400 972 1.100 10000.000 0.000 -0.516
97 291.00 1200.02 352 1017 1.100 10000.000 0.000 -0.516
98 294.00 1200.02 381 986 1.100 10000.000 0.000 -0.516
99 297.00 1200.02 351 938 1.100 10000.000 0.000 -0.516
100 300.00 1200.02 373 1060 1.100 10000.000 0.000 -0.516
101 303.00 1200.02 339 977 1.100 10000.000 0.000 -0.516
102 306.00 1200.02 332 947 1.100 10000.000 0.000 -0.516
103 309.00 1200.02 375 967 1.100 10000.000 0.000 -0.516
104 312.00 1200.02 329 994 1.100 10000.000 0.000 -0.516
105 315.00 1200.02 351 891 1.100 10000.000 0.000 -0.516
106 318.00 1200.02 348 968 1.100 10000.000 0.000 -0.516
107 321.00 1200.02 353 891 1.100 10000.000 0.000 -0.516
108 324.00 1200.02 339 985 1.100 10000.000 0.000 -0.516
109 327.00 1200.02 307 910 1.100 10000.000 0.000 -0.516
110 330.00 1200.02 319 897 1.100 10000.000 0.000 -0.516
111 333.00 1200.02 332 862 1.100 10000.000 0.000 -0.516
112 336.00 1200.02 333 905 1.100 10000.000 0.000 -0.516
113 339.00 1200.02 351 925 1.100 10000.000 0.000 -0.516
114 342.00 1200.02 348 920 1.100 10000.000 0.000 -0.516
115 345.00 1200.02 340 919 1.100 10000.000 0.000 -0.516
116 348.00 1200.02 368 951 1.100 10000.000 0.000 -0.516
117 351.00 1200.02 352 952 1.100 10000.000 0.000 -0.516
118 354.00 1200.02 327 932 1.100 10000.000 0.000 -0.516
119 357.00 1200.02 322 942 1.100 10000.000 0.000 -0.516
120 360.00 1200.02 344 1031 1.100 10000.000 0.000 -0.516
121 363.00 1200.02 344 974 1.100 10000.000 0.000 -0.516
122 366.00 1200.02 347 973 1.100 10000.000 0.000 -0.516
123 369.00 1200.02 342 971 1.100 10000.000 0.000 -0.516
124 372.00 1200.02 347 1007 1.100 10000.000 0.000 -0.516
125 375.00 1200.02 371 1013 1.100 10000.000 0.000 -0.516
126 378.00 1200.02 379 959 1.100 10000.000 0.000 -0.516
127 381.00 1200.02 359 1004 1.100 10000.000 0.000 -0.516
128 384.00 1200.02 343 989 1.100 10000.000 0.000 -0.516
129 387.00 1200.02 334 969 1.100 10000.000 0.000 -0.516
130 390.00 1200.02 358 1003 1.100 10000.000 0.000 -0.516
131 393.00 1200.02 346 992 1.100 10000.000 0.000 -0.516
132 396.00 1200.02 339 999 1.100 10000.000 0.000 -0.516
133 399.00 1200.02 343 984 1.100 10000.000 0.000 -0.516
134 402.00 1200.02 349 936 1.100 10000.000 0.000 -0.516
135 405.00 1200.02 303 950 1.100 10000.000 0.000 -0.516
136 408.00 1200.02 345 909 1.100 10000.000 0.000 -0.516
137 411.00 1200.02 313 957 1.100 10000.000 0.000 -0.516
138 414.00 1200.02 378 955 1.100 10000.000 0.000 -0.516
139 417.00 1200.02 351 928 1.100 10000.000 0.000 -0.516
140 420.00 1200.02 358 918 1.100 10000.000 0.000 -0.516
141 423.00 1200.02 356 890 1.100 10000.000 0.000 -0.516
142 426.00 1200.02 338 959 1.100 10000.000 0.000 -0.516
143 429.00 1200.02 376 925 1.100 10000.000 0.000 -0.516
144 432.00 1200.02 380 975 1.100 10000.000 0.000 -0.516
