# BinNR microsec tot-time (s)  O-Beam AUX Ampl(V) f(Hz) phase(deg) chi(pos)
0 0.00 1200.01 58 155 1.100 10000.000 0.000 0.670
1 3.00 1200.01 92 296 1.100 10000.000 0.000 0.670
2 6.00 1200.01 91 259 1.100 10000.000 0.000 0.670
3 9.00 1200.01 93 268 1.100 10000.000 0.000 0.670
4 12.00 1200.01 71 267 1.100 10000.000 0.000 0.670
5 15.00 1200.01 78 239 1.100 10000.000 0.000 0.670
6 18.00 1200.01 85 225 1.100 10000.000 0.000 0.670
7 21.00 1200.01 93 211 1.100 10000.000 0.000 0.670
8 24.00 1200.01 85 229 1.100 10000.000 0.000 0.670
9 27.00 1200.01 76 230 1.100 10000.000 0.000 0.670
10 30.00 1200.01 79 259 1.100 10000.000 0.000 0.670
11 33.00 1200.01 81 257 1.100 10000.000 0.000 0.670
12 36.00 1200.01 85 254 1.100 10000.000 0.000 0.670
13 39.00 1200.01 75 256 1.100 10000.000 0.000 0.670
14 42.00 1200.01 108 295 1.100 10000.000 0.000 0.670
15 45.00 1200.01 97 279 1.100 10000.000 0.000 0.670
16 48.00 1200.01 98 306 1.100 10000.000 0.000 0.670
17 51.00 1200.01 91 298 1.100 10000.000 0.000 0.670
18 54.00 1200.01 103 304 1.100 10000.000 0.000 0.670
19 57.00 1200.01 85 314 1.100 10000.000 0.000 0.670
20 60.00 1200.01 95 258 1.100 10000.000 0.000 0.670
21 63.00 1200.01 92 268 1.100 10000.000 0.000 0.670
22 66.00 1200.01 90 262 1.100 10000.000 0.000 0.670
23 69.00 1200.01 111 209 1.100 10000.000 0.000 0.670
24 72.00 1200.01 120 253 1.100 10000.000 0.000 0.670
25 75.00 1200.01 99 228 1.100 10000.000 0.000 0.670
26 78.00 1200.01 104 229 1.100 10000.000 0.000 0.670
27 81.00 1200.01 97 207 1.100 10000.000 0.000 0.670
28 84.00 1200.01 92 182 1.100 10000.000 0.000 0.670
29 87.00 1200.01 100 190 1.100 10000.000 0.000 0.670
30 90.00 1200.01 94 208 1.100 10000.000 0.000 0.670
31 93.00 1200.01 93 211 1.100 10000.000 0.000 0.670
32 96.00 1200.01 97 201 1.100 10000.000 0.000 0.670
33 99.00 1200.01 103 229 1.100 10000.000 0.000 0.670
34 102.00 1200.01 76 191 1.100 10000.000 0.000 0.670
35 105.00 1200.01 78 220 1.100 10000.000 0.000 0.670
36 108.00 1200.01 93 214 1.100 10000.000 0.000 0.670
37 111.00 1200.01 94 251 1.100 10000.000 0.000 0.670
38 114.00 1200.01 92 239 1.100 10000.000 0.000 0.670
39 117.00 1200.01 75 262 1.100 10000.000 0.000 0.670
40 120.00 1200.01 80 299 1.100 10000.000 0.000 0.670
41 123.00 1200.01 82 300 1.100 10000.000 0.000 0.670
42 126.00 1200.01 88 312 1.100 10000.000 0.000 0.670
43 129.00 1200.01 74 286 1.100 10000.000 0.000 0.670
44 132.00 1200.01 99 338 1.100 10000.000 0.000 0.670
45 135.00 1200.01 82 305 1.100 10000.000 0.000 0.670
46 138.00 1200.01 91 352 1.100 10000.000 0.000 0.670
47 141.00 1200.01 96 286 1.100 10000.000 0.000 0.670
48 144.00 1200.01 86 314 1.100 10000.000 0.000 0.670
49 147.00 1200.01 91 281 1.100 10000.000 0.000 0.670
50 150.00 1200.01 88 328 1.100 10000.000 0.000 0.670
51 153.00 1200.01 98 288 1.100 10000.000 0.000 0.670
52 156.00 1200.01 88 287 1.100 10000.000 0.000 0.670
53 159.00 1200.01 100 286 1.100 10000.000 0.000 0.670
54 162.00 1200.01 107 245 1.100 10000.000 0.000 0.670
55 165.00 1200.01 86 228 1.100 10000.000 0.000 0.670
56 168.00 1200.01 83 230 1.100 10000.000 0.000 0.670
57 171.00 1200.01 107 203 1.100 10000.000 0.000 0.670
58 174.00 1200.01 91 224 1.100 10000.000 0.000 0.670
59 177.00 1200.01 85 220 1.100 10000.000 0.000 0.670
60 180.00 1200.01 112 223 1.100 10000.000 0.000 0.670
61 183.00 1200.01 104 218 1.100 10000.000 0.000 0.670
62 186.00 1200.01 96 194 1.100 10000.000 0.000 0.670
63 189.00 1200.01 105 190 1.100 10000.000 0.000 0.670
64 192.00 1200.01 98 182 1.100 10000.000 0.000 0.670
65 195.00 1200.01 98 214 1.100 10000.000 0.000 0.670
66 198.00 1200.01 86 213 1.100 10000.000 0.000 0.670
67 201.00 1200.01 93 208 1.100 10000.000 0.000 0.670
68 204.00 1200.01 89 222 1.100 10000.000 0.000 0.670
69 207.00 1200.01 87 232 1.100 10000.000 0.000 0.670
70 210.00 1200.01 68 240 1.100 10000.000 0.000 0.670
71 213.00 1200.01 79 229 1.100 10000.000 0.000 0.670
72 216.00 1200.01 72 247 1.100 10000.000 0.000 0.670
73 219.00 1200.01 77 262 1.100 10000.000 0.000 0.670
74 222.00 1200.01 98 292 1.100 10000.000 0.000 0.670
75 225.00 1200.01 78 265 1.100 10000.000 0.000 0.670
76 228.00 1200.01 85 305 1.100 10000.000 0.000 0.670
77 231.00 1200.01 85 274 1.100 10000.000 0.000 0.670
78 234.00 1200.01 86 315 1.100 10000.000 0.000 0.670
79 237.00 1200.01 83 308 1.100 10000.000 0.000 0.670
80 240.00 1200.01 89 352 1.100 10000.000 0.000 0.670
81 243.00 1200.01 75 340 1.100 10000.000 0.000 0.670
82 246.00 1200.01 87 295 1.100 10000.000 0.000 0.670
83 249.00 1200.01 98 315 1.100 10000.000 0.000 0.670
84 252.00 1200.01 95 291 1.100 10000.000 0.000 0.670
85 255.00 1200.01 75 290 1.100 10000.000 0.000 0.670
86 258.00 1200.01 85 260 1.100 10000.000 0.000 0.670
87 261.00 1200.01 120 249 1.100 10000.000 0.000 0.670
88 264.00 1200.01 95 282 1.100 10000.000 0.000 0.670
89 267.00 1200.01 98 222 1.100 10000.000 0.000 0.670
90 270.00 1200.01 101 247 1.100 10000.000 0.000 0.670
91 273.00 1200.01 107 214 1.100 10000.000 0.000 0.670
92 276.00 1200.01 99 238 1.100 10000.000 0.000 0.670
93 279.00 1200.01 98 187 1.100 10000.000 0.000 0.670
94 282.00 1200.01 89 197 1.100 10000.000 0.000 0.670
95 285.00 1200.01 80 204 1.100 10000.000 0.000 0.670
96 288.00 1200.01 85 216 1.100 10000.000 0.000 0.670
97 291.00 1200.01 82 181 1.100 10000.000 0.000 0.670
98 294.00 1200.01 88 215 1.100 10000.000 0.000 0.670
99 297.00 1200.01 86 195 1.100 10000.000 0.000 0.670
100 300.00 1200.01 103 213 1.100 10000.000 0.000 0.670
101 303.00 1200.01 97 225 1.100 10000.000 0.000 0.670
102 306.00 1200.01 92 222 1.100 10000.000 0.000 0.670
103 309.00 1200.01 104 245 1.100 10000.000 0.000 0.670
104 312.00 1200.01 91 236 1.100 10000.000 0.000 0.670
105 315.00 1200.01 100 262 1.100 10000.000 0.000 0.670
106 318.00 1200.01 100 248 1.100 10000.000 0.000 0.670
107 321.00 1200.01 96 263 1.100 10000.000 0.000 0.670
108 324.00 1200.01 90 267 1.100 10000.000 0.000 0.670
109 327.00 1200.01 99 309 1.100 10000.000 0.000 0.670
110 330.00 1200.01 93 325 1.100 10000.000 0.000 0.670
111 333.00 1200.01 92 281 1.100 10000.000 0.000 0.670
112 336.00 1200.01 73 320 1.100 10000.000 0.000 0.670
113 339.00 1200.01 75 297 1.100 10000.000 0.000 0.670
114 342.00 1200.01 95 289 1.100 10000.000 0.000 0.670
115 345.00 1200.01 89 297 1.100 10000.000 0.000 0.670
116 348.00 1200.01 95 290 1.100 10000.000 0.000 0.670
117 351.00 1200.01 90 267 1.100 10000.000 0.000 0.670
118 354.00 1200.01 101 284 1.100 10000.000 0.000 0.670
119 357.00 1200.01 82 305 1.100 10000.000 0.000 0.670
120 360.00 1200.01 67 289 1.100 10000.000 0.000 0.670
121 363.00 1200.01 84 277 1.100 10000.000 0.000 0.670
122 366.00 1200.01 94 230 1.100 10000.000 0.000 0.670
123 369.00 1200.01 81 232 1.100 10000.000 0.000 0.670
124 372.00 1200.01 71 216 1.100 10000.000 0.000 0.670
125 375.00 1200.01 84 190 1.100 10000.000 0.000 0.670
126 378.00 1200.01 84 208 1.100 10000.000 0.000 0.670
127 381.00 1200.01 114 194 1.100 10000.000 0.000 0.670
128 384.00 1200.01 87 218 1.100 10000.000 0.000 0.670
129 387.00 1200.01 77 196 1.100 10000.000 0.000 0.670
130 390.00 1200.01 109 220 1.100 10000.000 0.000 0.670
131 393.00 1200.01 90 179 1.100 10000.000 0.000 0.670
132 396.00 1200.01 90 193 1.100 10000.000 0.000 0.670
133 399.00 1200.01 110 206 1.100 10000.000 0.000 0.670
134 402.00 1200.01 102 204 1.100 10000.000 0.000 0.670
135 405.00 1200.01 102 180 1.100 10000.000 0.000 0.670
136 408.00 1200.01 83 222 1.100 10000.000 0.000 0.670
137 411.00 1200.01 101 259 1.100 10000.000 0.000 0.670
138 414.00 1200.01 107 235 1.100 10000.000 0.000 0.670
139 417.00 1200.01 85 270 1.100 10000.000 0.000 0.670
140 420.00 1200.01 94 238 1.100 10000.000 0.000 0.670
141 423.00 1200.01 93 302 1.100 10000.000 0.000 0.670
142 426.00 1200.01 83 328 1.100 10000.000 0.000 0.670
143 429.00 1200.01 88 324 1.100 10000.000 0.000 0.670
144 432.00 1200.01 94 289 1.100 10000.000 0.000 0.670
