# BinNR microsec tot-time (s)  O-Beam AUX Ampl(V) f(Hz) phase(deg) chi(pos)
0 0.00 1200.00 156 487 1.100 10000.000 0.000 -0.670
1 3.00 1200.00 335 1031 1.100 10000.000 0.000 -0.670
2 6.00 1200.00 351 1010 1.100 10000.000 0.000 -0.670
3 9.00 1200.00 343 999 1.100 10000.000 0.000 -0.670
4 12.00 1200.00 321 1012 1.100 10000.000 0.000 -0.670
5 15.00 1200.00 311 1038 1.100 10000.000 0.000 -0.670
6 18.00 1200.00 313 1028 1.100 10000.000 0.000 -0.670
7 21.00 1200.00 312 1042 1.100 10000.000 0.000 -0.670
8 24.00 1200.00 293 1028 1.100 10000.000 0.000 -0.670
9 27.00 1200.00 329 981 1.100 10000.000 0.000 -0.670
10 30.00 1200.00 314 955 1.100 10000.000 0.000 -0.670
11 33.00 1200.00 319 955 1.100 10000.000 0.000 -0.670
12 36.00 1200.00 304 1005 1.100 10000.000 0.000 -0.670
13 39.00 1200.00 317 956 1.100 10000.000 0.000 -0.670
14 42.00 1200.00 315 1022 1.100 10000.000 0.000 -0.670
15 45.00 1200.00 333 949 1.100 10000.000 0.000 -0.670
16 48.00 1200.00 347 1000 1.100 10000.000 0.000 -0.670
17 51.00 1200.00 311 984 1.100 10000.000 0.000 -0.670
18 54.00 1200.00 322 983 1.100 10000.000 0.000 -0.670
19 57.00 1200.00 322 1023 1.100 10000.000 0.000 -0.670
20 60.00 1200.00 322 1057 1.100 10000.000 0.000 -0.670
21 63.00 1200.00 347 1040 1.100 10000.000 0.000 -0.670
22 66.00 1200.00 313 990 1.100 10000.000 0.000 -0.670
23 69.00 1200.00 324 985 1.100 10000.000 0.000 -0.670
24 72.00 1200.00 336 1023 1.100 10000.000 0.000 -0.670
25 75.00 1200.00 345 985 1.100 10000.000 0.000 -0.670
26 78.00 1200.00 357 1048 1.100 10000.000 0.000 -0.670
27 81.00 1200.00 350 1002 1.100 10000.000 0.000 -0.670
28 84.00 1200.00 353 1021 1.100 10000.000 0.000 -0.670
29 87.00 1200.00 346 1000 1.100 10000.000 0.000 -0.670
30 90.00 1200.00 356 950 1.100 10000.000 0.000 -0.670
31 93.00 1200.00 350 933 1.100 10000.000 0.000 -0.670
32 96.00 1200.00 341 961 1.100 10000.000 0.000 -0.670
33 99.00 1200.00 306 990 1.100 10000.000 0.000 -0.670
34 102.00 1200.00 354 978 1.100 10000.000 0.000 -0.670
35 105.00 1200.00 315 977 1.100 10000.000 0.000 -0.670
36 108.00 1200.00 339 996 1.100 10000.000 0.000 -0.670
37 111.00 1200.00 356 967 1.100 10000.000 0.000 -0.670
38 114.00 1200.00 354 973 1.100 10000.000 0.000 -0.670
39 117.00 1200.00 326 1030 1.100 10000.000 0.000 -0.670
40 120.00 1200.00 304 958 1.100 10000.000 0.000 -0.670
41 123.00 1200.00 322 983 1.100 10000.000 0.000 -0.670
42 126.00 1200.00 308 1062 1.100 10000.000 0.000 -0.670
43 129.00 1200.00 304 993 1.100 10000.000 0.000 -0.670
44 132.00 1200.00 312 1000 1.100 10000.000 0.000 -0.670
45 135.00 1200.00 317 964 1.100 10000.000 0.000 -0.670
46 138.00 1200.00 326 1014 1.100 10000.000 0.000 -0.670
47 141.00 1200.00 350 971 1.100 10000.000 0.000 -0.670
48 144.00 1200.00 317 1023 1.100 10000.000 0.000 -0.670
49 147.00 1200.00 353 1018 1.100 10000.000 0.000 -0.670
50 150.00 1200.00 346 1046 1.100 10000.000 0.000 -0.670
51 153.00 1200.00 350 997 1.100 10000.000 0.000 -0.670
52 156.00 1200.00 313 999 1.100 10000.000 0.000 -0.670
53 159.00 1200.00 354 966 1.100 10000.000 0.000 -0.670
54 162.00 1200.00 350 1054 1.100 10000.000 0.000 -0.670
55 165.00 1200.00 335 996 1.100 10000.000 0.000 -0.670
56 168.00 1200.00 339 1021 1.100 10000.000 0.000 -0.670
57 171.00 1200.00 314 963 1.100 10000.000 0.000 -0.670
58 174.00 1200.00 347 1005 1.100 10000.000 0.000 -0.670
59 177.00 1200.00 324 985 1.100 10000.000 0.000 -0.670
60 180.00 1200.00 343 979 1.100 10000.000 0.000 -0.670
61 183.00 1200.00 361 951 1.100 10000.000 0.000 -0.670
62 186.00 1200.00 355 969 1.100 10000.000 0.000 -0.670
63 189.00 1200.00 369 960 1.100 10000.000 0.000 -0.670
64 192.00 1200.00 331 1019 1.100 10000.000 0.000 -0.670
65 195.00 1200.00 348 1020 1.100 10000.000 0.000 -0.670
66 198.00 1200.00 339 916 1.100 10000.000 0.000 -0.670
67 201.00 1200.00 329 948 1.100 10000.000 0.000 -0.670
68 204.00 1200.00 361 1008 1.100 10000.000 0.000 -0.670
69 207.00 1200.00 328 1014 1.100 10000.000 0.000 -0.670
70 210.00 1200.00 341 987 1.100 10000.000 0.000 -0.670
71 213.00 1200.00 336 967 1.100 10000.000 0.000 -0.670
72 216.00 1200.00 348 983 1.100 10000.000 0.000 -0.670
73 219.00 1200.00 320 978 1.100 10000.000 0.000 -0.670
74 222.00 1200.00 316 1065 1.100 10000.000 0.000 -0.670
75 225.00 1200.00 329 977 1.100 10000.000 0.000 -0.670
76 228.00 1200.00 323 1014 1.100 10000.000 0.000 -0.670
77 231.00 1200.00 300 985 1.100 10000.000 0.000 -0.670
78 234.00 1200.00 345 1046 1.100 10000.000 0.000 -0.670
79 237.00 1200.00 308 974 1.100 10000.000 0.000 -0.670
80 240.00 1200.00 354 1014 1.100 10000.000 0.000 -0.670
81 243.00 1200.00 279 1021 1.100 10000.000 0.000 -0.670
82 246.00 1200.00 343 1000 1.100 10000.000 0.000 -0.670
83 249.00 1200.00 379 982 1.100 10000.000 0.000 -0.670
84 252.00 1200.00 348 1009 1.100 10000.000 0.000 -0.670
85 255.00 1200.00 320 982 1.100 10000.000 0.000 -0.670
86 258.00 1200.00 356 988 1.100 10000.000 0.000 -0.670
87 261.00 1200.00 339 963 1.100 10000.000 0.000 -0.670
88 264.00 1200.00 320 1030 1.100 10000.000 0.000 -0.670
89 267.00 1200.00 366 956 1.100 10000.000 0.000 -0.670
90 270.00 1200.00 331 994 1.100 10000.000 0.000 -0.670
91 273.00 1200.00 353 1018 1.100 10000.000 0.000 -0.670
92 276.00 1200.00 356 1025 1.100 10000.000 0.000 -0.670
93 279.00 1200.00 343 978 1.100 10000.000 0.000 -0.670
94 282.00 1200.00 354 948 1.100 10000.000 0.000 -0.670
95 285.00 1200.00 320 926 1.100 10000.000 0.000 -0.670
96 288.00 1200.00 335 953 1.100 10000.000 0.000 -0.670
97 291.00 1200.00 319 985 1.100 10000.000 0.000 -0.670
98 294.00 1200.00 337 1035 1.100 10000.000 0.000 -0.670
99 297.00 1200.00 330 967 1.100 10000.000 0.000 -0.670
100 300.00 1200.00 301 949 1.100 10000.000 0.000 -0.670
101 303.00 1200.00 313 942 1.100 10000.000 0.000 -0.670
102 306.00 1200.00 342 1019 1.100 10000.000 0.000 -0.670
103 309.00 1200.00 340 1007 1.100 10000.000 0.000 -0.670
104 312.00 1200.00 317 990 1.100 10000.000 0.000 -0.670
105 315.00 1200.00 337 954 1.100 10000.000 0.000 -0.670
106 318.00 1200.00 354 974 1.100 10000.000 0.000 -0.670
107 321.00 1200.00 354 990 1.100 10000.000 0.000 -0.670
108 324.00 1200.00 333 1042 1.100 10000.000 0.000 -0.670
109 327.00 1200.00 344 1048 1.100 10000.000 0.000 -0.670
110 330.00 1200.00 333 986 1.100 10000.000 0.000 -0.670
111 333.00 1200.00 363 1002 1.100 10000.000 0.000 -0.670
112 336.00 1200.00 315 991 1.100 10000.000 0.000 -0.670
113 339.00 1200.00 310 986 1.100 10000.000 0.000 -0.670
114 342.00 1200.00 328 1011 1.100 10000.000 0.000 -0.670
115 345.00 1200.00 316 1005 1.100 10000.000 0.000 -0.670
116 348.00 1200.00 313 1017 1.100 10000.000 0.000 -0.670
117 351.00 1200.00 327 979 1.100 10000.000 0.000 -0.670
118 354.00 1200.00 335 958 1.100 10000.000 0.000 -0.670
119 357.00 1200.00 303 1002 1.100 10000.000 0.000 -0.670
120 360.00 1200.00 381 984 1.100 10000.000 0.000 -0.670
121 363.00 1200.00 356 1016 1.100 10000.000 0.000 -0.670
122 366.00 1200.00 327 1042 1.100 10000.000 0.000 -0.670
123 369.00 1200.00 292 958 1.100 10000.000 0.000 -0.670
124 372.00 1200.00 335 1005 1.100 10000.000 0.000 -0.670
125 375.00 1200.00 306 980 1.100 10000.000 0.000 -0.670
126 378.00 1200.00 322 959 1.100 10000.000 0.000 -0.670
127 381.00 1200.00 339 914 1.100 10000.000 0.000 -0.670
128 384.00 1200.00 294 998 1.100 10000.000 0.000 -0.670
129 387.00 1200.00 340 958 1.100 10000.000 0.000 -0.670
130 390.00 1200.00 350 985 1.100 10000.000 0.000 -0.670
131 393.00 1200.00 321 934 1.100 10000.000 0.000 -0.670
132 396.00 1200.00 338 966 1.100 10000.000 0.000 -0.670
133 399.00 1200.00 346 938 1.100 10000.000 0.000 -0.670
134 402.00 1200.00 366 1007 1.100 10000.000 0.000 -0.670
135 405.00 1200.00 333 1037 1.100 10000.000 0.000 -0.670
136 408.00 1200.00 361 994 1.100 10000.000 0.000 -0.670
137 411.00 1200.00 317 992 1.100 10000.000 0.000 -0.670
138 414.00 1200.00 370 989 1.100 10000.000 0.000 -0.670
139 417.00 1200.00 361 1002 1.100 10000.000 0.000 -0.670
140 420.00 1200.00 316 969 1.100 10000.000 0.000 -0.670
141 423.00 1200.00 363 1005 1.100 10000.000 0.000 -0.670
142 426.00 1200.00 369 1024 1.100 10000.000 0.000 -0.670
143 429.00 1200.00 327 983 1.100 10000.000 0.000 -0.670
144 432.00 1200.00 342 1013 1.100 10000.000 0.000 -0.670
