# BinNR microsec tot-time (s)  O-Beam AUX Ampl(V) f(Hz) phase(deg) chi(pos)
0 0.00 1500.01 140 410 1.520 10000.000 0.000 1.329
1 3.00 1500.01 251 880 1.520 10000.000 0.000 1.329
2 6.00 1500.01 251 947 1.520 10000.000 0.000 1.329
3 9.00 1500.01 225 862 1.520 10000.000 0.000 1.329
4 12.00 1500.01 227 845 1.520 10000.000 0.000 1.329
5 15.00 1500.01 178 878 1.520 10000.000 0.000 1.329
6 18.00 1500.01 202 820 1.520 10000.000 0.000 1.329
7 21.00 1500.01 204 719 1.520 10000.000 0.000 1.329
8 24.00 1500.01 161 722 1.520 10000.000 0.000 1.329
9 27.00 1500.01 191 695 1.520 10000.000 0.000 1.329
10 30.00 1500.01 172 702 1.520 10000.000 0.000 1.329
11 33.00 1500.01 183 641 1.520 10000.000 0.000 1.329
12 36.00 1500.01 177 677 1.520 10000.000 0.000 1.329
13 39.00 1500.01 174 728 1.520 10000.000 0.000 1.329
14 42.00 1500.01 168 722 1.520 10000.000 0.000 1.329
15 45.00 1500.01 209 760 1.520 10000.000 0.000 1.329
16 48.00 1500.01 187 829 1.520 10000.000 0.000 1.329
17 51.00 1500.01 196 819 1.520 10000.000 0.000 1.329
18 54.00 1500.01 197 825 1.520 10000.000 0.000 1.329
19 57.00 1500.01 200 832 1.520 10000.000 0.000 1.329
20 60.00 1500.01 227 814 1.520 10000.000 0.000 1.329
21 63.00 1500.01 234 842 1.520 10000.000 0.000 1.329
22 66.00 1500.01 256 796 1.520 10000.000 0.000 1.329
23 69.00 1500.01 243 759 1.520 10000.000 0.000 1.329
24 72.00 1500.01 262 676 1.520 10000.000 0.000 1.329
25 75.00 1500.01 274 655 1.520 10000.000 0.000 1.329
26 78.00 1500.01 285 536 1.520 10000.000 0.000 1.329
27 81.00 1500.01 282 493 1.520 10000.000 0.000 1.329
28 84.00 1500.01 282 463 1.520 10000.000 0.000 1.329
29 87.00 1500.01 277 437 1.520 10000.000 0.000 1.329
30 90.00 1500.01 303 404 1.520 10000.000 0.000 1.329
31 93.00 1500.01 305 434 1.520 10000.000 0.000 1.329
32 96.00 1500.01 279 371 1.520 10000.000 0.000 1.329
33 99.00 1500.01 286 356 1.520 10000.000 0.000 1.329
34 102.00 1500.01 242 364 1.520 10000.000 0.000 1.329
35 105.00 1500.01 235 391 1.520 10000.000 0.000 1.329
36 108.00 1500.01 243 435 1.520 10000.000 0.000 1.329
37 111.00 1500.01 232 419 1.520 10000.000 0.000 1.329
38 114.00 1500.01 218 468 1.520 10000.000 0.000 1.329
39 117.00 1500.01 223 534 1.520 10000.000 0.000 1.329
40 120.00 1500.01 185 595 1.520 10000.000 0.000 1.329
41 123.00 1500.01 180 655 1.520 10000.000 0.000 1.329
42 126.00 1500.01 186 674 1.520 10000.000 0.000 1.329
43 129.00 1500.01 187 754 1.520 10000.000 0.000 1.329
44 132.00 1500.01 165 837 1.520 10000.000 0.000 1.329
45 135.00 1500.01 158 872 1.520 10000.000 0.000 1.329
46 138.00 1500.01 174 879 1.520 10000.000 0.000 1.329
47 141.00 1500.01 194 915 1.520 10000.000 0.000 1.329
48 144.00 1500.01 166 988 1.520 10000.000 0.000 1.329
49 147.00 1500.01 183 973 1.520 10000.000 0.000 1.329
50 150.00 1500.01 178 932 1.520 10000.000 0.000 1.329
51 153.00 1500.01 199 912 1.520 10000.000 0.000 1.329
52 156.00 1500.01 216 938 1.520 10000.000 0.000 1.329
53 159.00 1500.01 223 896 1.520 10000.000 0.000 1.329
54 162.00 1500.01 230 877 1.520 10000.000 0.000 1.329
55 165.00 1500.01 249 811 1.520 10000.000 0.000 1.329
56 168.00 1500.01 241 764 1.520 10000.000 0.000 1.329
57 171.00 1500.01 285 731 1.520 10000.000 0.000 1.329
58 174.00 1500.01 285 695 1.520 10000.000 0.000 1.329
59 177.00 1500.01 252 550 1.520 10000.000 0.000 1.329
60 180.00 1500.01 305 540 1.520 10000.000 0.000 1.329
61 183.00 1500.01 305 483 1.520 10000.000 0.000 1.329
62 186.00 1500.01 296 440 1.520 10000.000 0.000 1.329
63 189.00 1500.01 279 402 1.520 10000.000 0.000 1.329
64 192.00 1500.01 268 383 1.520 10000.000 0.000 1.329
65 195.00 1500.01 309 351 1.520 10000.000 0.000 1.329
66 198.00 1500.01 288 348 1.520 10000.000 0.000 1.329
67 201.00 1500.01 260 363 1.520 10000.000 0.000 1.329
68 204.00 1500.01 247 375 1.520 10000.000 0.000 1.329
69 207.00 1500.01 249 392 1.520 10000.000 0.000 1.329
70 210.00 1500.01 195 422 1.520 10000.000 0.000 1.329
71 213.00 1500.01 204 441 1.520 10000.000 0.000 1.329
72 216.00 1500.01 207 482 1.520 10000.000 0.000 1.329
73 219.00 1500.01 174 559 1.520 10000.000 0.000 1.329
74 222.00 1500.01 169 597 1.520 10000.000 0.000 1.329
75 225.00 1500.01 168 627 1.520 10000.000 0.000 1.329
76 228.00 1500.01 191 739 1.520 10000.000 0.000 1.329
77 231.00 1500.01 185 799 1.520 10000.000 0.000 1.329
78 234.00 1500.01 165 821 1.520 10000.000 0.000 1.329
79 237.00 1500.01 175 943 1.520 10000.000 0.000 1.329
80 240.00 1500.01 191 980 1.520 10000.000 0.000 1.329
81 243.00 1500.01 153 921 1.520 10000.000 0.000 1.329
82 246.00 1500.01 166 988 1.520 10000.000 0.000 1.329
83 249.00 1500.01 191 1001 1.520 10000.000 0.000 1.329
84 252.00 1500.01 201 942 1.520 10000.000 0.000 1.329
85 255.00 1500.01 173 953 1.520 10000.000 0.000 1.329
86 258.00 1500.01 227 982 1.520 10000.000 0.000 1.329
87 261.00 1500.01 224 894 1.520 10000.000 0.000 1.329
88 264.00 1500.01 271 853 1.520 10000.000 0.000 1.329
89 267.00 1500.01 259 784 1.520 10000.000 0.000 1.329
90 270.00 1500.01 243 728 1.520 10000.000 0.000 1.329
91 273.00 1500.01 225 619 1.520 10000.000 0.000 1.329
92 276.00 1500.01 272 589 1.520 10000.000 0.000 1.329
93 279.00 1500.01 241 592 1.520 10000.000 0.000 1.329
94 282.00 1500.01 267 506 1.520 10000.000 0.000 1.329
95 285.00 1500.01 246 419 1.520 10000.000 0.000 1.329
96 288.00 1500.01 269 400 1.520 10000.000 0.000 1.329
97 291.00 1500.01 234 367 1.520 10000.000 0.000 1.329
98 294.00 1500.01 248 380 1.520 10000.000 0.000 1.329
99 297.00 1500.01 239 370 1.520 10000.000 0.000 1.329
100 300.00 1500.01 229 346 1.520 10000.000 0.000 1.329
101 303.00 1500.01 223 376 1.520 10000.000 0.000 1.329
102 306.00 1500.01 247 387 1.520 10000.000 0.000 1.329
103 309.00 1500.01 228 404 1.520 10000.000 0.000 1.329
104 312.00 1500.01 235 458 1.520 10000.000 0.000 1.329
105 315.00 1500.01 235 497 1.520 10000.000 0.000 1.329
106 318.00 1500.01 266 522 1.520 10000.000 0.000 1.329
107 321.00 1500.01 247 610 1.520 10000.000 0.000 1.329
108 324.00 1500.01 269 676 1.520 10000.000 0.000 1.329
109 327.00 1500.01 300 701 1.520 10000.000 0.000 1.329
110 330.00 1500.01 237 789 1.520 10000.000 0.000 1.329
111 333.00 1500.01 249 830 1.520 10000.000 0.000 1.329
112 336.00 1500.01 276 872 1.520 10000.000 0.000 1.329
113 339.00 1500.01 244 920 1.520 10000.000 0.000 1.329
114 342.00 1500.01 225 966 1.520 10000.000 0.000 1.329
115 345.00 1500.01 231 951 1.520 10000.000 0.000 1.329
116 348.00 1500.01 209 988 1.520 10000.000 0.000 1.329
117 351.00 1500.01 186 973 1.520 10000.000 0.000 1.329
118 354.00 1500.01 209 975 1.520 10000.000 0.000 1.329
119 357.00 1500.01 188 895 1.520 10000.000 0.000 1.329
120 360.00 1500.01 164 955 1.520 10000.000 0.000 1.329
121 363.00 1500.01 203 834 1.520 10000.000 0.000 1.329
122 366.00 1500.01 191 848 1.520 10000.000 0.000 1.329
123 369.00 1500.01 177 761 1.520 10000.000 0.000 1.329
124 372.00 1500.01 185 676 1.520 10000.000 0.000 1.329
125 375.00 1500.01 178 632 1.520 10000.000 0.000 1.329
126 378.00 1500.01 189 532 1.520 10000.000 0.000 1.329
127 381.00 1500.01 141 520 1.520 10000.000 0.000 1.329
128 384.00 1500.01 182 445 1.520 10000.000 0.000 1.329
129 387.00 1500.01 196 443 1.520 10000.000 0.000 1.329
130 390.00 1500.01 215 378 1.520 10000.000 0.000 1.329
131 393.00 1500.01 199 354 1.520 10000.000 0.000 1.329
132 396.00 1500.01 229 381 1.520 10000.000 0.000 1.329
133 399.00 1500.01 228 337 1.520 10000.000 0.000 1.329
134 402.00 1500.01 269 399 1.520 10000.000 0.000 1.329
135 405.00 1500.01 225 393 1.520 10000.000 0.000 1.329
136 408.00 1500.01 315 391 1.520 10000.000 0.000 1.329
137 411.00 1500.01 258 434 1.520 10000.000 0.000 1.329
138 414.00 1500.01 292 487 1.520 10000.000 0.000 1.329
139 417.00 1500.01 314 486 1.520 10000.000 0.000 1.329
140 420.00 1500.01 274 562 1.520 10000.000 0.000 1.329
141 423.00 1500.01 300 596 1.520 10000.000 0.000 1.329
142 426.00 1500.01 315 688 1.520 10000.000 0.000 1.329
143 429.00 1500.01 287 799 1.520 10000.000 0.000 1.329
144 432.00 1500.01 284 817 1.520 10000.000 0.000 1.329
