# BinNR microsec tot-time (s)  O-Beam AUX Ampl(V) f(Hz) phase(deg) chi(pos)
0 0.00 1500.01 173 547 1.520 10000.000 0.000 -0.505
1 3.00 1500.01 362 1198 1.520 10000.000 0.000 -0.505
2 6.00 1500.01 334 1184 1.520 10000.000 0.000 -0.505
3 9.00 1500.01 308 1257 1.520 10000.000 0.000 -0.505
4 12.00 1500.01 307 1156 1.520 10000.000 0.000 -0.505
5 15.00 1500.01 338 1203 1.520 10000.000 0.000 -0.505
6 18.00 1500.01 303 1204 1.520 10000.000 0.000 -0.505
7 21.00 1500.01 295 1141 1.520 10000.000 0.000 -0.505
8 24.00 1500.01 259 1114 1.520 10000.000 0.000 -0.505
9 27.00 1500.01 258 1051 1.520 10000.000 0.000 -0.505
10 30.00 1500.01 292 1075 1.520 10000.000 0.000 -0.505
11 33.00 1500.01 252 1042 1.520 10000.000 0.000 -0.505
12 36.00 1500.01 267 1014 1.520 10000.000 0.000 -0.505
13 39.00 1500.01 269 1073 1.520 10000.000 0.000 -0.505
14 42.00 1500.01 289 1152 1.520 10000.000 0.000 -0.505
15 45.00 1500.01 279 1114 1.520 10000.000 0.000 -0.505
16 48.00 1500.01 286 1145 1.520 10000.000 0.000 -0.505
17 51.00 1500.01 287 1148 1.520 10000.000 0.000 -0.505
18 54.00 1500.01 291 1196 1.520 10000.000 0.000 -0.505
19 57.00 1500.01 298 1219 1.520 10000.000 0.000 -0.505
20 60.00 1500.01 342 1240 1.520 10000.000 0.000 -0.505
21 63.00 1500.01 359 1119 1.520 10000.000 0.000 -0.505
22 66.00 1500.01 357 1183 1.520 10000.000 0.000 -0.505
23 69.00 1500.01 350 1129 1.520 10000.000 0.000 -0.505
24 72.00 1500.01 380 1079 1.520 10000.000 0.000 -0.505
25 75.00 1500.01 343 1055 1.520 10000.000 0.000 -0.505
26 78.00 1500.01 395 972 1.520 10000.000 0.000 -0.505
27 81.00 1500.01 392 947 1.520 10000.000 0.000 -0.505
28 84.00 1500.01 421 874 1.520 10000.000 0.000 -0.505
29 87.00 1500.01 398 853 1.520 10000.000 0.000 -0.505
30 90.00 1500.01 407 803 1.520 10000.000 0.000 -0.505
31 93.00 1500.01 402 736 1.520 10000.000 0.000 -0.505
32 96.00 1500.01 378 770 1.520 10000.000 0.000 -0.505
33 99.00 1500.01 372 761 1.520 10000.000 0.000 -0.505
34 102.00 1500.01 351 756 1.520 10000.000 0.000 -0.505
35 105.00 1500.01 333 755 1.520 10000.000 0.000 -0.505
36 108.00 1500.01 362 819 1.520 10000.000 0.000 -0.505
37 111.00 1500.01 315 840 1.520 10000.000 0.000 -0.505
38 114.00 1500.01 296 880 1.520 10000.000 0.000 -0.505
39 117.00 1500.01 270 960 1.520 10000.000 0.000 -0.505
40 120.00 1500.01 304 1029 1.520 10000.000 0.000 -0.505
41 123.00 1500.01 268 982 1.520 10000.000 0.000 -0.505
42 126.00 1500.01 257 1125 1.520 10000.000 0.000 -0.505
43 129.00 1500.01 241 1114 1.520 10000.000 0.000 -0.505
44 132.00 1500.01 268 1210 1.520 10000.000 0.000 -0.505
45 135.00 1500.01 264 1205 1.520 10000.000 0.000 -0.505
46 138.00 1500.01 269 1248 1.520 10000.000 0.000 -0.505
47 141.00 1500.01 269 1305 1.520 10000.000 0.000 -0.505
48 144.00 1500.01 290 1277 1.520 10000.000 0.000 -0.505
49 147.00 1500.01 271 1227 1.520 10000.000 0.000 -0.505
50 150.00 1500.01 277 1227 1.520 10000.000 0.000 -0.505
51 153.00 1500.01 283 1265 1.520 10000.000 0.000 -0.505
52 156.00 1500.01 304 1276 1.520 10000.000 0.000 -0.505
53 159.00 1500.01 338 1240 1.520 10000.000 0.000 -0.505
54 162.00 1500.01 314 1236 1.520 10000.000 0.000 -0.505
55 165.00 1500.01 341 1184 1.520 10000.000 0.000 -0.505
56 168.00 1500.01 398 1155 1.520 10000.000 0.000 -0.505
57 171.00 1500.01 334 1131 1.520 10000.000 0.000 -0.505
58 174.00 1500.01 368 1050 1.520 10000.000 0.000 -0.505
59 177.00 1500.01 391 1033 1.520 10000.000 0.000 -0.505
60 180.00 1500.01 409 969 1.520 10000.000 0.000 -0.505
61 183.00 1500.01 392 905 1.520 10000.000 0.000 -0.505
62 186.00 1500.01 406 901 1.520 10000.000 0.000 -0.505
63 189.00 1500.01 370 798 1.520 10000.000 0.000 -0.505
64 192.00 1500.01 390 774 1.520 10000.000 0.000 -0.505
65 195.00 1500.01 367 781 1.520 10000.000 0.000 -0.505
66 198.00 1500.01 418 762 1.520 10000.000 0.000 -0.505
67 201.00 1500.01 378 788 1.520 10000.000 0.000 -0.505
68 204.00 1500.01 371 808 1.520 10000.000 0.000 -0.505
69 207.00 1500.01 337 781 1.520 10000.000 0.000 -0.505
70 210.00 1500.01 354 851 1.520 10000.000 0.000 -0.505
71 213.00 1500.01 280 896 1.520 10000.000 0.000 -0.505
72 216.00 1500.01 287 926 1.520 10000.000 0.000 -0.505
73 219.00 1500.01 288 988 1.520 10000.000 0.000 -0.505
74 222.00 1500.01 291 1116 1.520 10000.000 0.000 -0.505
75 225.00 1500.01 278 1073 1.520 10000.000 0.000 -0.505
76 228.00 1500.01 270 1150 1.520 10000.000 0.000 -0.505
77 231.00 1500.01 250 1143 1.520 10000.000 0.000 -0.505
78 234.00 1500.01 266 1207 1.520 10000.000 0.000 -0.505
79 237.00 1500.01 296 1203 1.520 10000.000 0.000 -0.505
80 240.00 1500.01 263 1224 1.520 10000.000 0.000 -0.505
81 243.00 1500.01 271 1274 1.520 10000.000 0.000 -0.505
82 246.00 1500.01 283 1241 1.520 10000.000 0.000 -0.505
83 249.00 1500.01 276 1213 1.520 10000.000 0.000 -0.505
84 252.00 1500.01 289 1228 1.520 10000.000 0.000 -0.505
85 255.00 1500.01 280 1230 1.520 10000.000 0.000 -0.505
86 258.00 1500.01 311 1222 1.520 10000.000 0.000 -0.505
87 261.00 1500.01 313 1232 1.520 10000.000 0.000 -0.505
88 264.00 1500.01 333 1215 1.520 10000.000 0.000 -0.505
89 267.00 1500.01 355 1093 1.520 10000.000 0.000 -0.505
90 270.00 1500.01 366 1207 1.520 10000.000 0.000 -0.505
91 273.00 1500.01 349 1117 1.520 10000.000 0.000 -0.505
92 276.00 1500.01 394 1076 1.520 10000.000 0.000 -0.505
93 279.00 1500.01 352 937 1.520 10000.000 0.000 -0.505
94 282.00 1500.01 366 904 1.520 10000.000 0.000 -0.505
95 285.00 1500.01 339 864 1.520 10000.000 0.000 -0.505
96 288.00 1500.01 392 842 1.520 10000.000 0.000 -0.505
97 291.00 1500.01 337 777 1.520 10000.000 0.000 -0.505
98 294.00 1500.01 383 772 1.520 10000.000 0.000 -0.505
99 297.00 1500.01 335 747 1.520 10000.000 0.000 -0.505
100 300.00 1500.01 335 782 1.520 10000.000 0.000 -0.505
101 303.00 1500.01 348 765 1.520 10000.000 0.000 -0.505
102 306.00 1500.01 352 810 1.520 10000.000 0.000 -0.505
103 309.00 1500.01 341 835 1.520 10000.000 0.000 -0.505
104 312.00 1500.01 338 865 1.520 10000.000 0.000 -0.505
105 315.00 1500.01 358 944 1.520 10000.000 0.000 -0.505
106 318.00 1500.01 364 906 1.520 10000.000 0.000 -0.505
107 321.00 1500.01 375 967 1.520 10000.000 0.000 -0.505
108 324.00 1500.01 333 1089 1.520 10000.000 0.000 -0.505
109 327.00 1500.01 340 1137 1.520 10000.000 0.000 -0.505
110 330.00 1500.01 364 1162 1.520 10000.000 0.000 -0.505
111 333.00 1500.01 360 1220 1.520 10000.000 0.000 -0.505
112 336.00 1500.01 368 1294 1.520 10000.000 0.000 -0.505
113 339.00 1500.01 371 1171 1.520 10000.000 0.000 -0.505
114 342.00 1500.01 303 1248 1.520 10000.000 0.000 -0.505
115 345.00 1500.01 315 1229 1.520 10000.000 0.000 -0.505
116 348.00 1500.01 291 1279 1.520 10000.000 0.000 -0.505
117 351.00 1500.01 285 1153 1.520 10000.000 0.000 -0.505
118 354.00 1500.01 292 1283 1.520 10000.000 0.000 -0.505
119 357.00 1500.01 273 1222 1.520 10000.000 0.000 -0.505
120 360.00 1500.01 251 1120 1.520 10000.000 0.000 -0.505
121 363.00 1500.01 278 1208 1.520 10000.000 0.000 -0.505
122 366.00 1500.01 328 1140 1.520 10000.000 0.000 -0.505
123 369.00 1500.01 281 1086 1.520 10000.000 0.000 -0.505
124 372.00 1500.01 251 1097 1.520 10000.000 0.000 -0.505
125 375.00 1500.01 237 1024 1.520 10000.000 0.000 -0.505
126 378.00 1500.01 255 1030 1.520 10000.000 0.000 -0.505
127 381.00 1500.01 260 914 1.520 10000.000 0.000 -0.505
128 384.00 1500.01 284 977 1.520 10000.000 0.000 -0.505
129 387.00 1500.01 329 808 1.520 10000.000 0.000 -0.505
130 390.00 1500.01 329 789 1.520 10000.000 0.000 -0.505
131 393.00 1500.01 299 777 1.520 10000.000 0.000 -0.505
132 396.00 1500.01 317 795 1.520 10000.000 0.000 -0.505
133 399.00 1500.01 348 783 1.520 10000.000 0.000 -0.505
134 402.00 1500.01 380 802 1.520 10000.000 0.000 -0.505
135 405.00 1500.01 346 798 1.520 10000.000 0.000 -0.505
136 408.00 1500.01 394 828 1.520 10000.000 0.000 -0.505
137 411.00 1500.01 392 877 1.520 10000.000 0.000 -0.505
138 414.00 1500.01 376 890 1.520 10000.000 0.000 -0.505
139 417.00 1500.01 388 946 1.520 10000.000 0.000 -0.505
140 420.00 1500.01 375 1082 1.520 10000.000 0.000 -0.505
141 423.00 1500.01 391 1068 1.520 10000.000 0.000 -0.505
142 426.00 1500.01 348 1125 1.520 10000.000 0.000 -0.505
143 429.00 1500.01 368 1155 1.520 10000.000 0.000 -0.505
144 432.00 1500.01 402 1186 1.520 10000.000 0.000 -0.505
