# BinNR microsec tot-time (s)  O-Beam AUX Ampl(V) f(Hz) phase(deg) chi(pos)
0 0.00 1500.02 120 380 1.520 10000.000 0.000 -0.835
1 3.00 1500.02 196 791 1.520 10000.000 0.000 -0.835
2 6.00 1500.02 207 835 1.520 10000.000 0.000 -0.835
3 9.00 1500.02 188 758 1.520 10000.000 0.000 -0.835
4 12.00 1500.02 192 804 1.520 10000.000 0.000 -0.835
5 15.00 1500.02 156 684 1.520 10000.000 0.000 -0.835
6 18.00 1500.02 180 656 1.520 10000.000 0.000 -0.835
7 21.00 1500.02 183 673 1.520 10000.000 0.000 -0.835
8 24.00 1500.02 167 608 1.520 10000.000 0.000 -0.835
9 27.00 1500.02 166 602 1.520 10000.000 0.000 -0.835
10 30.00 1500.02 163 534 1.520 10000.000 0.000 -0.835
11 33.00 1500.02 129 546 1.520 10000.000 0.000 -0.835
12 36.00 1500.02 187 550 1.520 10000.000 0.000 -0.835
13 39.00 1500.02 145 529 1.520 10000.000 0.000 -0.835
14 42.00 1500.02 174 610 1.520 10000.000 0.000 -0.835
15 45.00 1500.02 163 652 1.520 10000.000 0.000 -0.835
16 48.00 1500.02 174 697 1.520 10000.000 0.000 -0.835
17 51.00 1500.02 166 730 1.520 10000.000 0.000 -0.835
18 54.00 1500.02 191 747 1.520 10000.000 0.000 -0.835
19 57.00 1500.02 191 782 1.520 10000.000 0.000 -0.835
20 60.00 1500.02 219 753 1.520 10000.000 0.000 -0.835
21 63.00 1500.02 210 682 1.520 10000.000 0.000 -0.835
22 66.00 1500.02 212 724 1.520 10000.000 0.000 -0.835
23 69.00 1500.02 232 607 1.520 10000.000 0.000 -0.835
24 72.00 1500.02 274 586 1.520 10000.000 0.000 -0.835
25 75.00 1500.02 230 511 1.520 10000.000 0.000 -0.835
26 78.00 1500.02 266 469 1.520 10000.000 0.000 -0.835
27 81.00 1500.02 253 427 1.520 10000.000 0.000 -0.835
28 84.00 1500.02 274 389 1.520 10000.000 0.000 -0.835
29 87.00 1500.02 240 310 1.520 10000.000 0.000 -0.835
30 90.00 1500.02 308 302 1.520 10000.000 0.000 -0.835
31 93.00 1500.02 273 283 1.520 10000.000 0.000 -0.835
32 96.00 1500.02 246 254 1.520 10000.000 0.000 -0.835
33 99.00 1500.02 249 307 1.520 10000.000 0.000 -0.835
34 102.00 1500.02 217 259 1.520 10000.000 0.000 -0.835
35 105.00 1500.02 231 352 1.520 10000.000 0.000 -0.835
36 108.00 1500.02 208 311 1.520 10000.000 0.000 -0.835
37 111.00 1500.02 209 338 1.520 10000.000 0.000 -0.835
38 114.00 1500.02 202 354 1.520 10000.000 0.000 -0.835
39 117.00 1500.02 181 405 1.520 10000.000 0.000 -0.835
40 120.00 1500.02 173 491 1.520 10000.000 0.000 -0.835
41 123.00 1500.02 173 512 1.520 10000.000 0.000 -0.835
42 126.00 1500.02 173 617 1.520 10000.000 0.000 -0.835
43 129.00 1500.02 157 638 1.520 10000.000 0.000 -0.835
44 132.00 1500.02 142 769 1.520 10000.000 0.000 -0.835
45 135.00 1500.02 165 806 1.520 10000.000 0.000 -0.835
46 138.00 1500.02 146 808 1.520 10000.000 0.000 -0.835
47 141.00 1500.02 175 830 1.520 10000.000 0.000 -0.835
48 144.00 1500.02 175 934 1.520 10000.000 0.000 -0.835
49 147.00 1500.02 146 893 1.520 10000.000 0.000 -0.835
50 150.00 1500.02 176 899 1.520 10000.000 0.000 -0.835
51 153.00 1500.02 192 889 1.520 10000.000 0.000 -0.835
52 156.00 1500.02 206 827 1.520 10000.000 0.000 -0.835
53 159.00 1500.02 191 796 1.520 10000.000 0.000 -0.835
54 162.00 1500.02 210 795 1.520 10000.000 0.000 -0.835
55 165.00 1500.02 280 672 1.520 10000.000 0.000 -0.835
56 168.00 1500.02 249 663 1.520 10000.000 0.000 -0.835
57 171.00 1500.02 245 560 1.520 10000.000 0.000 -0.835
58 174.00 1500.02 263 526 1.520 10000.000 0.000 -0.835
59 177.00 1500.02 263 477 1.520 10000.000 0.000 -0.835
60 180.00 1500.02 280 419 1.520 10000.000 0.000 -0.835
61 183.00 1500.02 258 414 1.520 10000.000 0.000 -0.835
62 186.00 1500.02 265 353 1.520 10000.000 0.000 -0.835
63 189.00 1500.02 272 291 1.520 10000.000 0.000 -0.835
64 192.00 1500.02 296 292 1.520 10000.000 0.000 -0.835
65 195.00 1500.02 268 314 1.520 10000.000 0.000 -0.835
66 198.00 1500.02 231 308 1.520 10000.000 0.000 -0.835
67 201.00 1500.02 240 274 1.520 10000.000 0.000 -0.835
68 204.00 1500.02 236 297 1.520 10000.000 0.000 -0.835
69 207.00 1500.02 195 294 1.520 10000.000 0.000 -0.835
70 210.00 1500.02 182 364 1.520 10000.000 0.000 -0.835
71 213.00 1500.02 187 368 1.520 10000.000 0.000 -0.835
72 216.00 1500.02 176 363 1.520 10000.000 0.000 -0.835
73 219.00 1500.02 164 471 1.520 10000.000 0.000 -0.835
74 222.00 1500.02 182 496 1.520 10000.000 0.000 -0.835
75 225.00 1500.02 155 626 1.520 10000.000 0.000 -0.835
76 228.00 1500.02 142 646 1.520 10000.000 0.000 -0.835
77 231.00 1500.02 154 630 1.520 10000.000 0.000 -0.835
78 234.00 1500.02 171 743 1.520 10000.000 0.000 -0.835
79 237.00 1500.02 156 797 1.520 10000.000 0.000 -0.835
80 240.00 1500.02 142 862 1.520 10000.000 0.000 -0.835
81 243.00 1500.02 178 894 1.520 10000.000 0.000 -0.835
82 246.00 1500.02 167 915 1.520 10000.000 0.000 -0.835
83 249.00 1500.02 198 892 1.520 10000.000 0.000 -0.835
84 252.00 1500.02 196 886 1.520 10000.000 0.000 -0.835
85 255.00 1500.02 188 831 1.520 10000.000 0.000 -0.835
86 258.00 1500.02 183 879 1.520 10000.000 0.000 -0.835
87 261.00 1500.02 228 754 1.520 10000.000 0.000 -0.835
88 264.00 1500.02 203 747 1.520 10000.000 0.000 -0.835
89 267.00 1500.02 240 667 1.520 10000.000 0.000 -0.835
90 270.00 1500.02 260 682 1.520 10000.000 0.000 -0.835
91 273.00 1500.02 223 527 1.520 10000.000 0.000 -0.835
92 276.00 1500.02 259 486 1.520 10000.000 0.000 -0.835
93 279.00 1500.02 252 419 1.520 10000.000 0.000 -0.835
94 282.00 1500.02 252 402 1.520 10000.000 0.000 -0.835
95 285.00 1500.02 210 345 1.520 10000.000 0.000 -0.835
96 288.00 1500.02 253 293 1.520 10000.000 0.000 -0.835
97 291.00 1500.02 229 310 1.520 10000.000 0.000 -0.835
98 294.00 1500.02 208 297 1.520 10000.000 0.000 -0.835
99 297.00 1500.02 219 258 1.520 10000.000 0.000 -0.835
100 300.00 1500.02 216 310 1.520 10000.000 0.000 -0.835
101 303.00 1500.02 190 273 1.520 10000.000 0.000 -0.835
102 306.00 1500.02 210 299 1.520 10000.000 0.000 -0.835
103 309.00 1500.02 201 276 1.520 10000.000 0.000 -0.835
104 312.00 1500.02 208 331 1.520 10000.000 0.000 -0.835
105 315.00 1500.02 226 375 1.520 10000.000 0.000 -0.835
106 318.00 1500.02 245 410 1.520 10000.000 0.000 -0.835
107 321.00 1500.02 239 520 1.520 10000.000 0.000 -0.835
108 324.00 1500.02 235 510 1.520 10000.000 0.000 -0.835
109 327.00 1500.02 226 625 1.520 10000.000 0.000 -0.835
110 330.00 1500.02 238 692 1.520 10000.000 0.000 -0.835
111 333.00 1500.02 243 790 1.520 10000.000 0.000 -0.835
112 336.00 1500.02 209 799 1.520 10000.000 0.000 -0.835
113 339.00 1500.02 229 826 1.520 10000.000 0.000 -0.835
114 342.00 1500.02 186 835 1.520 10000.000 0.000 -0.835
115 345.00 1500.02 186 873 1.520 10000.000 0.000 -0.835
116 348.00 1500.02 179 861 1.520 10000.000 0.000 -0.835
117 351.00 1500.02 189 833 1.520 10000.000 0.000 -0.835
118 354.00 1500.02 174 900 1.520 10000.000 0.000 -0.835
119 357.00 1500.02 163 863 1.520 10000.000 0.000 -0.835
120 360.00 1500.02 164 825 1.520 10000.000 0.000 -0.835
121 363.00 1500.02 183 755 1.520 10000.000 0.000 -0.835
122 366.00 1500.02 153 672 1.520 10000.000 0.000 -0.835
123 369.00 1500.02 168 665 1.520 10000.000 0.000 -0.835
124 372.00 1500.02 167 576 1.520 10000.000 0.000 -0.835
125 375.00 1500.02 165 515 1.520 10000.000 0.000 -0.835
126 378.00 1500.02 182 480 1.520 10000.000 0.000 -0.835
127 381.00 1500.02 196 406 1.520 10000.000 0.000 -0.835
128 384.00 1500.02 182 373 1.520 10000.000 0.000 -0.835
129 387.00 1500.02 192 327 1.520 10000.000 0.000 -0.835
130 390.00 1500.02 186 293 1.520 10000.000 0.000 -0.835
131 393.00 1500.02 192 281 1.520 10000.000 0.000 -0.835
132 396.00 1500.02 220 295 1.520 10000.000 0.000 -0.835
133 399.00 1500.02 224 252 1.520 10000.000 0.000 -0.835
134 402.00 1500.02 252 248 1.520 10000.000 0.000 -0.835
135 405.00 1500.02 204 286 1.520 10000.000 0.000 -0.835
136 408.00 1500.02 237 315 1.520 10000.000 0.000 -0.835
137 411.00 1500.02 250 326 1.520 10000.000 0.000 -0.835
138 414.00 1500.02 294 391 1.520 10000.000 0.000 -0.835
139 417.00 1500.02 267 409 1.520 10000.000 0.000 -0.835
140 420.00 1500.02 253 468 1.520 10000.000 0.000 -0.835
141 423.00 1500.02 270 557 1.520 10000.000 0.000 -0.835
142 426.00 1500.02 263 631 1.520 10000.000 0.000 -0.835
143 429.00 1500.02 276 647 1.520 10000.000 0.000 -0.835
144 432.00 1500.02 233 705 1.520 10000.000 0.000 -0.835
