# BinNR microsec tot-time (s)  O-Beam AUX Ampl(V) f(Hz) phase(deg) chi(pos)
0 0.00 1500.00 207 643 1.520 10000.000 0.000 -0.330
1 3.00 1500.00 409 1210 1.520 10000.000 0.000 -0.330
2 6.00 1500.00 399 1266 1.520 10000.000 0.000 -0.330
3 9.00 1500.00 393 1307 1.520 10000.000 0.000 -0.330
4 12.00 1500.00 397 1194 1.520 10000.000 0.000 -0.330
5 15.00 1500.00 379 1235 1.520 10000.000 0.000 -0.330
6 18.00 1500.00 350 1218 1.520 10000.000 0.000 -0.330
7 21.00 1500.00 340 1252 1.520 10000.000 0.000 -0.330
8 24.00 1500.00 324 1335 1.520 10000.000 0.000 -0.330
9 27.00 1500.00 329 1181 1.520 10000.000 0.000 -0.330
10 30.00 1500.00 345 1213 1.520 10000.000 0.000 -0.330
11 33.00 1500.00 330 1211 1.520 10000.000 0.000 -0.330
12 36.00 1500.00 311 1219 1.520 10000.000 0.000 -0.330
13 39.00 1500.00 307 1195 1.520 10000.000 0.000 -0.330
14 42.00 1500.00 310 1225 1.520 10000.000 0.000 -0.330
15 45.00 1500.00 343 1321 1.520 10000.000 0.000 -0.330
16 48.00 1500.00 336 1228 1.520 10000.000 0.000 -0.330
17 51.00 1500.00 343 1255 1.520 10000.000 0.000 -0.330
18 54.00 1500.00 363 1249 1.520 10000.000 0.000 -0.330
19 57.00 1500.00 332 1217 1.520 10000.000 0.000 -0.330
20 60.00 1500.00 376 1265 1.520 10000.000 0.000 -0.330
21 63.00 1500.00 379 1258 1.520 10000.000 0.000 -0.330
22 66.00 1500.00 372 1261 1.520 10000.000 0.000 -0.330
23 69.00 1500.00 373 1231 1.520 10000.000 0.000 -0.330
24 72.00 1500.00 368 1231 1.520 10000.000 0.000 -0.330
25 75.00 1500.00 428 1211 1.520 10000.000 0.000 -0.330
26 78.00 1500.00 391 1183 1.520 10000.000 0.000 -0.330
27 81.00 1500.00 400 1133 1.520 10000.000 0.000 -0.330
28 84.00 1500.00 435 1156 1.520 10000.000 0.000 -0.330
29 87.00 1500.00 432 1091 1.520 10000.000 0.000 -0.330
30 90.00 1500.00 423 1059 1.520 10000.000 0.000 -0.330
31 93.00 1500.00 416 1014 1.520 10000.000 0.000 -0.330
32 96.00 1500.00 397 983 1.520 10000.000 0.000 -0.330
33 99.00 1500.00 406 1034 1.520 10000.000 0.000 -0.330
34 102.00 1500.00 382 1047 1.520 10000.000 0.000 -0.330
35 105.00 1500.00 356 1053 1.520 10000.000 0.000 -0.330
36 108.00 1500.00 429 1150 1.520 10000.000 0.000 -0.330
37 111.00 1500.00 386 1117 1.520 10000.000 0.000 -0.330
38 114.00 1500.00 357 1142 1.520 10000.000 0.000 -0.330
39 117.00 1500.00 372 1109 1.520 10000.000 0.000 -0.330
40 120.00 1500.00 354 1200 1.520 10000.000 0.000 -0.330
41 123.00 1500.00 340 1244 1.520 10000.000 0.000 -0.330
42 126.00 1500.00 334 1251 1.520 10000.000 0.000 -0.330
43 129.00 1500.00 339 1338 1.520 10000.000 0.000 -0.330
44 132.00 1500.00 351 1232 1.520 10000.000 0.000 -0.330
45 135.00 1500.00 331 1241 1.520 10000.000 0.000 -0.330
46 138.00 1500.00 306 1311 1.520 10000.000 0.000 -0.330
47 141.00 1500.00 333 1234 1.520 10000.000 0.000 -0.330
48 144.00 1500.00 351 1304 1.520 10000.000 0.000 -0.330
49 147.00 1500.00 311 1232 1.520 10000.000 0.000 -0.330
50 150.00 1500.00 341 1232 1.520 10000.000 0.000 -0.330
51 153.00 1500.00 352 1244 1.520 10000.000 0.000 -0.330
52 156.00 1500.00 369 1273 1.520 10000.000 0.000 -0.330
53 159.00 1500.00 355 1233 1.520 10000.000 0.000 -0.330
54 162.00 1500.00 378 1213 1.520 10000.000 0.000 -0.330
55 165.00 1500.00 366 1222 1.520 10000.000 0.000 -0.330
56 168.00 1500.00 425 1255 1.520 10000.000 0.000 -0.330
57 171.00 1500.00 348 1160 1.520 10000.000 0.000 -0.330
58 174.00 1500.00 357 1231 1.520 10000.000 0.000 -0.330
59 177.00 1500.00 397 1204 1.520 10000.000 0.000 -0.330
60 180.00 1500.00 412 1169 1.520 10000.000 0.000 -0.330
61 183.00 1500.00 415 1096 1.520 10000.000 0.000 -0.330
62 186.00 1500.00 399 1074 1.520 10000.000 0.000 -0.330
63 189.00 1500.00 390 1032 1.520 10000.000 0.000 -0.330
64 192.00 1500.00 414 1021 1.520 10000.000 0.000 -0.330
65 195.00 1500.00 377 1054 1.520 10000.000 0.000 -0.330
66 198.00 1500.00 408 992 1.520 10000.000 0.000 -0.330
67 201.00 1500.00 387 1038 1.520 10000.000 0.000 -0.330
68 204.00 1500.00 419 1061 1.520 10000.000 0.000 -0.330
69 207.00 1500.00 374 1074 1.520 10000.000 0.000 -0.330
70 210.00 1500.00 411 1116 1.520 10000.000 0.000 -0.330
71 213.00 1500.00 355 1191 1.520 10000.000 0.000 -0.330
72 216.00 1500.00 378 1160 1.520 10000.000 0.000 -0.330
73 219.00 1500.00 326 1144 1.520 10000.000 0.000 -0.330
74 222.00 1500.00 329 1211 1.520 10000.000 0.000 -0.330
75 225.00 1500.00 359 1231 1.520 10000.000 0.000 -0.330
76 228.00 1500.00 308 1235 1.520 10000.000 0.000 -0.330
77 231.00 1500.00 329 1276 1.520 10000.000 0.000 -0.330
78 234.00 1500.00 307 1269 1.520 10000.000 0.000 -0.330
79 237.00 1500.00 309 1239 1.520 10000.000 0.000 -0.330
80 240.00 1500.00 311 1234 1.520 10000.000 0.000 -0.330
81 243.00 1500.00 344 1196 1.520 10000.000 0.000 -0.330
82 246.00 1500.00 317 1251 1.520 10000.000 0.000 -0.330
83 249.00 1500.00 312 1210 1.520 10000.000 0.000 -0.330
84 252.00 1500.00 347 1242 1.520 10000.000 0.000 -0.330
85 255.00 1500.00 352 1174 1.520 10000.000 0.000 -0.330
86 258.00 1500.00 366 1206 1.520 10000.000 0.000 -0.330
87 261.00 1500.00 331 1229 1.520 10000.000 0.000 -0.330
88 264.00 1500.00 401 1268 1.520 10000.000 0.000 -0.330
89 267.00 1500.00 380 1187 1.520 10000.000 0.000 -0.330
90 270.00 1500.00 393 1230 1.520 10000.000 0.000 -0.330
91 273.00 1500.00 390 1187 1.520 10000.000 0.000 -0.330
92 276.00 1500.00 392 1171 1.520 10000.000 0.000 -0.330
93 279.00 1500.00 417 1212 1.520 10000.000 0.000 -0.330
94 282.00 1500.00 401 1157 1.520 10000.000 0.000 -0.330
95 285.00 1500.00 431 1090 1.520 10000.000 0.000 -0.330
96 288.00 1500.00 410 1069 1.520 10000.000 0.000 -0.330
97 291.00 1500.00 425 988 1.520 10000.000 0.000 -0.330
98 294.00 1500.00 366 963 1.520 10000.000 0.000 -0.330
99 297.00 1500.00 426 1044 1.520 10000.000 0.000 -0.330
100 300.00 1500.00 379 1001 1.520 10000.000 0.000 -0.330
101 303.00 1500.00 408 1056 1.520 10000.000 0.000 -0.330
102 306.00 1500.00 411 1003 1.520 10000.000 0.000 -0.330
103 309.00 1500.00 422 1040 1.520 10000.000 0.000 -0.330
104 312.00 1500.00 394 1116 1.520 10000.000 0.000 -0.330
105 315.00 1500.00 372 1161 1.520 10000.000 0.000 -0.330
106 318.00 1500.00 383 1141 1.520 10000.000 0.000 -0.330
107 321.00 1500.00 431 1187 1.520 10000.000 0.000 -0.330
108 324.00 1500.00 403 1174 1.520 10000.000 0.000 -0.330
109 327.00 1500.00 353 1269 1.520 10000.000 0.000 -0.330
110 330.00 1500.00 433 1354 1.520 10000.000 0.000 -0.330
111 333.00 1500.00 393 1243 1.520 10000.000 0.000 -0.330
112 336.00 1500.00 415 1257 1.520 10000.000 0.000 -0.330
113 339.00 1500.00 375 1261 1.520 10000.000 0.000 -0.330
114 342.00 1500.00 421 1301 1.520 10000.000 0.000 -0.330
115 345.00 1500.00 398 1222 1.520 10000.000 0.000 -0.330
116 348.00 1500.00 388 1240 1.520 10000.000 0.000 -0.330
117 351.00 1500.00 385 1235 1.520 10000.000 0.000 -0.330
118 354.00 1500.00 337 1287 1.520 10000.000 0.000 -0.330
119 357.00 1500.00 345 1199 1.520 10000.000 0.000 -0.330
120 360.00 1500.00 301 1265 1.520 10000.000 0.000 -0.330
121 363.00 1500.00 341 1240 1.520 10000.000 0.000 -0.330
122 366.00 1500.00 319 1263 1.520 10000.000 0.000 -0.330
123 369.00 1500.00 316 1246 1.520 10000.000 0.000 -0.330
124 372.00 1500.00 360 1198 1.520 10000.000 0.000 -0.330
125 375.00 1500.00 311 1162 1.520 10000.000 0.000 -0.330
126 378.00 1500.00 293 1164 1.520 10000.000 0.000 -0.330
127 381.00 1500.00 331 1136 1.520 10000.000 0.000 -0.330
128 384.00 1500.00 350 1133 1.520 10000.000 0.000 -0.330
129 387.00 1500.00 334 1043 1.520 10000.000 0.000 -0.330
130 390.00 1500.00 356 1035 1.520 10000.000 0.000 -0.330
131 393.00 1500.00 356 1076 1.520 10000.000 0.000 -0.330
132 396.00 1500.00 374 1000 1.520 10000.000 0.000 -0.330
133 399.00 1500.00 384 1050 1.520 10000.000 0.000 -0.330
134 402.00 1500.00 370 1011 1.520 10000.000 0.000 -0.330
135 405.00 1500.00 362 1042 1.520 10000.000 0.000 -0.330
136 408.00 1500.00 425 1080 1.520 10000.000 0.000 -0.330
137 411.00 1500.00 363 1146 1.520 10000.000 0.000 -0.330
138 414.00 1500.00 438 1197 1.520 10000.000 0.000 -0.330
139 417.00 1500.00 437 1177 1.520 10000.000 0.000 -0.330
140 420.00 1500.00 432 1161 1.520 10000.000 0.000 -0.330
141 423.00 1500.00 376 1152 1.520 10000.000 0.000 -0.330
142 426.00 1500.00 395 1211 1.520 10000.000 0.000 -0.330
143 429.00 1500.00 411 1301 1.520 10000.000 0.000 -0.330
144 432.00 1500.00 415 1221 1.520 10000.000 0.000 -0.330
