# BinNR microsec tot-time (s)  O-Beam AUX Ampl(V) f(Hz) phase(deg) chi(pos)
0 0.00 1200.00 129 449 2.160 10000.000 0.000 -0.637
1 3.00 1200.00 249 886 2.160 10000.000 0.000 -0.637
2 6.00 1200.00 202 871 2.160 10000.000 0.000 -0.637
3 9.00 1200.00 259 842 2.160 10000.000 0.000 -0.637
4 12.00 1200.00 313 726 2.160 10000.000 0.000 -0.637
5 15.00 1200.00 250 586 2.160 10000.000 0.000 -0.637
6 18.00 1200.00 332 498 2.160 10000.000 0.000 -0.637
7 21.00 1200.00 289 332 2.160 10000.000 0.000 -0.637
8 24.00 1200.00 321 272 2.160 10000.000 0.000 -0.637
9 27.00 1200.00 308 270 2.160 10000.000 0.000 -0.637
10 30.00 1200.00 285 297 2.160 10000.000 0.000 -0.637
11 33.00 1200.00 233 355 2.160 10000.000 0.000 -0.637
12 36.00 1200.00 216 507 2.160 10000.000 0.000 -0.637
13 39.00 1200.00 197 651 2.160 10000.000 0.000 -0.637
14 42.00 1200.00 161 821 2.160 10000.000 0.000 -0.637
15 45.00 1200.00 179 927 2.160 10000.000 0.000 -0.637
16 48.00 1200.00 154 983 2.160 10000.000 0.000 -0.637
17 51.00 1200.00 162 996 2.160 10000.000 0.000 -0.637
18 54.00 1200.00 149 868 2.160 10000.000 0.000 -0.637
19 57.00 1200.00 172 829 2.160 10000.000 0.000 -0.637
20 60.00 1200.00 198 770 2.160 10000.000 0.000 -0.637
21 63.00 1200.00 213 675 2.160 10000.000 0.000 -0.637
22 66.00 1200.00 241 583 2.160 10000.000 0.000 -0.637
23 69.00 1200.00 261 663 2.160 10000.000 0.000 -0.637
24 72.00 1200.00 310 722 2.160 10000.000 0.000 -0.637
25 75.00 1200.00 329 795 2.160 10000.000 0.000 -0.637
26 78.00 1200.00 342 921 2.160 10000.000 0.000 -0.637
27 81.00 1200.00 345 989 2.160 10000.000 0.000 -0.637
28 84.00 1200.00 321 949 2.160 10000.000 0.000 -0.637
29 87.00 1200.00 375 974 2.160 10000.000 0.000 -0.637
30 90.00 1200.00 321 880 2.160 10000.000 0.000 -0.637
31 93.00 1200.00 339 738 2.160 10000.000 0.000 -0.637
32 96.00 1200.00 308 563 2.160 10000.000 0.000 -0.637
33 99.00 1200.00 336 408 2.160 10000.000 0.000 -0.637
34 102.00 1200.00 350 271 2.160 10000.000 0.000 -0.637
35 105.00 1200.00 312 183 2.160 10000.000 0.000 -0.637
36 108.00 1200.00 364 147 2.160 10000.000 0.000 -0.637
37 111.00 1200.00 351 136 2.160 10000.000 0.000 -0.637
38 114.00 1200.00 343 120 2.160 10000.000 0.000 -0.637
39 117.00 1200.00 350 123 2.160 10000.000 0.000 -0.637
40 120.00 1200.00 348 139 2.160 10000.000 0.000 -0.637
41 123.00 1200.00 345 163 2.160 10000.000 0.000 -0.637
42 126.00 1200.00 340 189 2.160 10000.000 0.000 -0.637
43 129.00 1200.00 310 326 2.160 10000.000 0.000 -0.637
44 132.00 1200.00 343 454 2.160 10000.000 0.000 -0.637
45 135.00 1200.00 289 557 2.160 10000.000 0.000 -0.637
46 138.00 1200.00 273 746 2.160 10000.000 0.000 -0.637
47 141.00 1200.00 274 864 2.160 10000.000 0.000 -0.637
48 144.00 1200.00 212 932 2.160 10000.000 0.000 -0.637
49 147.00 1200.00 248 1025 2.160 10000.000 0.000 -0.637
50 150.00 1200.00 200 1014 2.160 10000.000 0.000 -0.637
51 153.00 1200.00 211 876 2.160 10000.000 0.000 -0.637
52 156.00 1200.00 226 844 2.160 10000.000 0.000 -0.637
53 159.00 1200.00 222 733 2.160 10000.000 0.000 -0.637
54 162.00 1200.00 249 709 2.160 10000.000 0.000 -0.637
55 165.00 1200.00 240 643 2.160 10000.000 0.000 -0.637
56 168.00 1200.00 292 700 2.160 10000.000 0.000 -0.637
57 171.00 1200.00 313 772 2.160 10000.000 0.000 -0.637
58 174.00 1200.00 320 801 2.160 10000.000 0.000 -0.637
59 177.00 1200.00 323 843 2.160 10000.000 0.000 -0.637
60 180.00 1200.00 338 955 2.160 10000.000 0.000 -0.637
61 183.00 1200.00 339 972 2.160 10000.000 0.000 -0.637
62 186.00 1200.00 367 1012 2.160 10000.000 0.000 -0.637
63 189.00 1200.00 332 918 2.160 10000.000 0.000 -0.637
64 192.00 1200.00 368 785 2.160 10000.000 0.000 -0.637
65 195.00 1200.00 341 595 2.160 10000.000 0.000 -0.637
66 198.00 1200.00 317 452 2.160 10000.000 0.000 -0.637
67 201.00 1200.00 347 287 2.160 10000.000 0.000 -0.637
68 204.00 1200.00 331 226 2.160 10000.000 0.000 -0.637
69 207.00 1200.00 334 164 2.160 10000.000 0.000 -0.637
70 210.00 1200.00 388 165 2.160 10000.000 0.000 -0.637
71 213.00 1200.00 336 159 2.160 10000.000 0.000 -0.637
72 216.00 1200.00 331 196 2.160 10000.000 0.000 -0.637
73 219.00 1200.00 333 257 2.160 10000.000 0.000 -0.637
74 222.00 1200.00 319 353 2.160 10000.000 0.000 -0.637
75 225.00 1200.00 295 440 2.160 10000.000 0.000 -0.637
76 228.00 1200.00 307 561 2.160 10000.000 0.000 -0.637
77 231.00 1200.00 315 657 2.160 10000.000 0.000 -0.637
78 234.00 1200.00 308 777 2.160 10000.000 0.000 -0.637
79 237.00 1200.00 295 820 2.160 10000.000 0.000 -0.637
80 240.00 1200.00 266 881 2.160 10000.000 0.000 -0.637
81 243.00 1200.00 269 926 2.160 10000.000 0.000 -0.637
82 246.00 1200.00 247 953 2.160 10000.000 0.000 -0.637
83 249.00 1200.00 262 992 2.160 10000.000 0.000 -0.637
84 252.00 1200.00 294 1005 2.160 10000.000 0.000 -0.637
85 255.00 1200.00 287 984 2.160 10000.000 0.000 -0.637
86 258.00 1200.00 294 979 2.160 10000.000 0.000 -0.637
87 261.00 1200.00 287 959 2.160 10000.000 0.000 -0.637
88 264.00 1200.00 308 960 2.160 10000.000 0.000 -0.637
89 267.00 1200.00 315 956 2.160 10000.000 0.000 -0.637
90 270.00 1200.00 306 972 2.160 10000.000 0.000 -0.637
91 273.00 1200.00 311 1062 2.160 10000.000 0.000 -0.637
92 276.00 1200.00 312 1004 2.160 10000.000 0.000 -0.637
93 279.00 1200.00 283 971 2.160 10000.000 0.000 -0.637
94 282.00 1200.00 282 970 2.160 10000.000 0.000 -0.637
95 285.00 1200.00 282 954 2.160 10000.000 0.000 -0.637
96 288.00 1200.00 243 884 2.160 10000.000 0.000 -0.637
97 291.00 1200.00 237 829 2.160 10000.000 0.000 -0.637
98 294.00 1200.00 223 719 2.160 10000.000 0.000 -0.637
99 297.00 1200.00 191 662 2.160 10000.000 0.000 -0.637
100 300.00 1200.00 214 583 2.160 10000.000 0.000 -0.637
101 303.00 1200.00 238 552 2.160 10000.000 0.000 -0.637
102 306.00 1200.00 250 509 2.160 10000.000 0.000 -0.637
103 309.00 1200.00 291 452 2.160 10000.000 0.000 -0.637
104 312.00 1200.00 286 421 2.160 10000.000 0.000 -0.637
105 315.00 1200.00 312 411 2.160 10000.000 0.000 -0.637
106 318.00 1200.00 337 395 2.160 10000.000 0.000 -0.637
107 321.00 1200.00 276 471 2.160 10000.000 0.000 -0.637
108 324.00 1200.00 254 498 2.160 10000.000 0.000 -0.637
109 327.00 1200.00 270 502 2.160 10000.000 0.000 -0.637
110 330.00 1200.00 250 604 2.160 10000.000 0.000 -0.637
111 333.00 1200.00 264 676 2.160 10000.000 0.000 -0.637
112 336.00 1200.00 230 770 2.160 10000.000 0.000 -0.637
113 339.00 1200.00 227 862 2.160 10000.000 0.000 -0.637
114 342.00 1200.00 245 995 2.160 10000.000 0.000 -0.637
115 345.00 1200.00 274 933 2.160 10000.000 0.000 -0.637
116 348.00 1200.00 293 990 2.160 10000.000 0.000 -0.637
117 351.00 1200.00 299 988 2.160 10000.000 0.000 -0.637
118 354.00 1200.00 309 1042 2.160 10000.000 0.000 -0.637
119 357.00 1200.00 274 980 2.160 10000.000 0.000 -0.637
120 360.00 1200.00 309 1045 2.160 10000.000 0.000 -0.637
121 363.00 1200.00 283 956 2.160 10000.000 0.000 -0.637
122 366.00 1200.00 226 988 2.160 10000.000 0.000 -0.637
123 369.00 1200.00 210 984 2.160 10000.000 0.000 -0.637
124 372.00 1200.00 188 963 2.160 10000.000 0.000 -0.637
125 375.00 1200.00 160 934 2.160 10000.000 0.000 -0.637
126 378.00 1200.00 156 1022 2.160 10000.000 0.000 -0.637
127 381.00 1200.00 140 970 2.160 10000.000 0.000 -0.637
128 384.00 1200.00 139 958 2.160 10000.000 0.000 -0.637
129 387.00 1200.00 126 947 2.160 10000.000 0.000 -0.637
130 390.00 1200.00 116 900 2.160 10000.000 0.000 -0.637
131 393.00 1200.00 132 788 2.160 10000.000 0.000 -0.637
132 396.00 1200.00 165 675 2.160 10000.000 0.000 -0.637
133 399.00 1200.00 193 636 2.160 10000.000 0.000 -0.637
134 402.00 1200.00 207 576 2.160 10000.000 0.000 -0.637
135 405.00 1200.00 256 503 2.160 10000.000 0.000 -0.637
136 408.00 1200.00 284 446 2.160 10000.000 0.000 -0.637
137 411.00 1200.00 282 525 2.160 10000.000 0.000 -0.637
138 414.00 1200.00 276 609 2.160 10000.000 0.000 -0.637
139 417.00 1200.00 302 666 2.160 10000.000 0.000 -0.637
140 420.00 1200.00 313 702 2.160 10000.000 0.000 -0.637
141 423.00 1200.00 285 764 2.160 10000.000 0.000 -0.637
