# BinNR microsec tot-time (s)  O-Beam AUX Ampl_1(V) f_1(Hz) phase_1(deg) Ampl_2(V) f_2(Hz) phase_2(deg) chi(pos)
0 0.00 1500.00 130 274 0.740 10000.000 0.000 0.610 15000.000 0.000 -0.835
1 3.00 1500.00 229 566 0.740 10000.000 0.000 0.610 15000.000 0.000 -0.835
2 6.00 1500.00 241 554 0.740 10000.000 0.000 0.610 15000.000 0.000 -0.835
3 9.00 1500.00 229 530 0.740 10000.000 0.000 0.610 15000.000 0.000 -0.835
4 12.00 1500.00 210 552 0.740 10000.000 0.000 0.610 15000.000 0.000 -0.835
5 15.00 1500.00 237 573 0.740 10000.000 0.000 0.610 15000.000 0.000 -0.835
6 18.00 1500.00 242 616 0.740 10000.000 0.000 0.610 15000.000 0.000 -0.835
7 21.00 1500.00 245 586 0.740 10000.000 0.000 0.610 15000.000 0.000 -0.835
8 24.00 1500.00 262 686 0.740 10000.000 0.000 0.610 15000.000 0.000 -0.835
9 27.00 1500.00 195 563 0.740 10000.000 0.000 0.610 15000.000 0.000 -0.835
10 30.00 1500.00 256 659 0.740 10000.000 0.000 0.610 15000.000 0.000 -0.835
11 33.00 1500.00 245 667 0.740 10000.000 0.000 0.610 15000.000 0.000 -0.835
12 36.00 1500.00 246 614 0.740 10000.000 0.000 0.610 15000.000 0.000 -0.835
13 39.00 1500.00 260 636 0.740 10000.000 0.000 0.610 15000.000 0.000 -0.835
14 42.00 1500.00 244 648 0.740 10000.000 0.000 0.610 15000.000 0.000 -0.835
15 45.00 1500.00 235 588 0.740 10000.000 0.000 0.610 15000.000 0.000 -0.835
16 48.00 1500.00 264 568 0.740 10000.000 0.000 0.610 15000.000 0.000 -0.835
17 51.00 1500.00 229 612 0.740 10000.000 0.000 0.610 15000.000 0.000 -0.835
18 54.00 1500.00 248 565 0.740 10000.000 0.000 0.610 15000.000 0.000 -0.835
19 57.00 1500.00 256 538 0.740 10000.000 0.000 0.610 15000.000 0.000 -0.835
20 60.00 1500.00 249 567 0.740 10000.000 0.000 0.610 15000.000 0.000 -0.835
21 63.00 1500.00 208 602 0.740 10000.000 0.000 0.610 15000.000 0.000 -0.835
22 66.00 1500.00 252 607 0.740 10000.000 0.000 0.610 15000.000 0.000 -0.835
23 69.00 1500.00 220 630 0.740 10000.000 0.000 0.610 15000.000 0.000 -0.835
24 72.00 1500.00 248 670 0.740 10000.000 0.000 0.610 15000.000 0.000 -0.835
25 75.00 1500.00 220 595 0.740 10000.000 0.000 0.610 15000.000 0.000 -0.835
26 78.00 1500.00 206 697 0.740 10000.000 0.000 0.610 15000.000 0.000 -0.835
27 81.00 1500.00 237 705 0.740 10000.000 0.000 0.610 15000.000 0.000 -0.835
28 84.00 1500.00 202 685 0.740 10000.000 0.000 0.610 15000.000 0.000 -0.835
29 87.00 1500.00 235 706 0.740 10000.000 0.000 0.610 15000.000 0.000 -0.835
30 90.00 1500.00 231 735 0.740 10000.000 0.000 0.610 15000.000 0.000 -0.835
31 93.00 1500.00 205 656 0.740 10000.000 0.000 0.610 15000.000 0.000 -0.835
32 96.00 1500.00 226 634 0.740 10000.000 0.000 0.610 15000.000 0.000 -0.835
33 99.00 1500.00 225 593 0.740 10000.000 0.000 0.610 15000.000 0.000 -0.835
34 102.00 1500.00 211 660 0.740 10000.000 0.000 0.610 15000.000 0.000 -0.835
35 105.00 1500.00 243 640 0.740 10000.000 0.000 0.610 15000.000 0.000 -0.835
36 108.00 1500.00 228 649 0.740 10000.000 0.000 0.610 15000.000 0.000 -0.835
37 111.00 1500.00 225 592 0.740 10000.000 0.000 0.610 15000.000 0.000 -0.835
38 114.00 1500.00 258 616 0.740 10000.000 0.000 0.610 15000.000 0.000 -0.835
39 117.00 1500.00 231 610 0.740 10000.000 0.000 0.610 15000.000 0.000 -0.835
40 120.00 1500.00 270 601 0.740 10000.000 0.000 0.610 15000.000 0.000 -0.835
41 123.00 1500.00 263 600 0.740 10000.000 0.000 0.610 15000.000 0.000 -0.835
42 126.00 1500.00 259 635 0.740 10000.000 0.000 0.610 15000.000 0.000 -0.835
43 129.00 1500.00 243 601 0.740 10000.000 0.000 0.610 15000.000 0.000 -0.835
44 132.00 1500.00 254 600 0.740 10000.000 0.000 0.610 15000.000 0.000 -0.835
45 135.00 1500.00 220 619 0.740 10000.000 0.000 0.610 15000.000 0.000 -0.835
46 138.00 1500.00 237 644 0.740 10000.000 0.000 0.610 15000.000 0.000 -0.835
47 141.00 1500.00 222 616 0.740 10000.000 0.000 0.610 15000.000 0.000 -0.835
48 144.00 1500.00 265 672 0.740 10000.000 0.000 0.610 15000.000 0.000 -0.835
49 147.00 1500.00 224 664 0.740 10000.000 0.000 0.610 15000.000 0.000 -0.835
50 150.00 1500.00 239 695 0.740 10000.000 0.000 0.610 15000.000 0.000 -0.835
51 153.00 1500.00 223 655 0.740 10000.000 0.000 0.610 15000.000 0.000 -0.835
52 156.00 1500.00 230 606 0.740 10000.000 0.000 0.610 15000.000 0.000 -0.835
53 159.00 1500.00 214 630 0.740 10000.000 0.000 0.610 15000.000 0.000 -0.835
54 162.00 1500.00 249 594 0.740 10000.000 0.000 0.610 15000.000 0.000 -0.835
55 165.00 1500.00 247 605 0.740 10000.000 0.000 0.610 15000.000 0.000 -0.835
56 168.00 1500.00 232 608 0.740 10000.000 0.000 0.610 15000.000 0.000 -0.835
57 171.00 1500.00 229 627 0.740 10000.000 0.000 0.610 15000.000 0.000 -0.835
58 174.00 1500.00 255 650 0.740 10000.000 0.000 0.610 15000.000 0.000 -0.835
59 177.00 1500.00 237 546 0.740 10000.000 0.000 0.610 15000.000 0.000 -0.835
60 180.00 1500.00 230 645 0.740 10000.000 0.000 0.610 15000.000 0.000 -0.835
61 183.00 1500.00 241 571 0.740 10000.000 0.000 0.610 15000.000 0.000 -0.835
62 186.00 1500.00 209 637 0.740 10000.000 0.000 0.610 15000.000 0.000 -0.835
63 189.00 1500.00 248 632 0.740 10000.000 0.000 0.610 15000.000 0.000 -0.835
64 192.00 1500.00 244 624 0.740 10000.000 0.000 0.610 15000.000 0.000 -0.835
65 195.00 1500.00 244 633 0.740 10000.000 0.000 0.610 15000.000 0.000 -0.835
66 198.00 1500.00 247 722 0.740 10000.000 0.000 0.610 15000.000 0.000 -0.835
67 201.00 1500.00 228 677 0.740 10000.000 0.000 0.610 15000.000 0.000 -0.835
68 204.00 1500.00 242 726 0.740 10000.000 0.000 0.610 15000.000 0.000 -0.835
69 207.00 1500.00 223 683 0.740 10000.000 0.000 0.610 15000.000 0.000 -0.835
70 210.00 1500.00 234 728 0.740 10000.000 0.000 0.610 15000.000 0.000 -0.835
71 213.00 1500.00 214 732 0.740 10000.000 0.000 0.610 15000.000 0.000 -0.835
72 216.00 1500.00 231 672 0.740 10000.000 0.000 0.610 15000.000 0.000 -0.835
73 219.00 1500.00 266 712 0.740 10000.000 0.000 0.610 15000.000 0.000 -0.835
74 222.00 1500.00 237 660 0.740 10000.000 0.000 0.610 15000.000 0.000 -0.835
75 225.00 1500.00 249 673 0.740 10000.000 0.000 0.610 15000.000 0.000 -0.835
76 228.00 1500.00 216 649 0.740 10000.000 0.000 0.610 15000.000 0.000 -0.835
77 231.00 1500.00 211 652 0.740 10000.000 0.000 0.610 15000.000 0.000 -0.835
78 234.00 1500.00 251 594 0.740 10000.000 0.000 0.610 15000.000 0.000 -0.835
79 237.00 1500.00 245 564 0.740 10000.000 0.000 0.610 15000.000 0.000 -0.835
80 240.00 1500.00 243 554 0.740 10000.000 0.000 0.610 15000.000 0.000 -0.835
81 243.00 1500.00 224 523 0.740 10000.000 0.000 0.610 15000.000 0.000 -0.835
82 246.00 1500.00 243 509 0.740 10000.000 0.000 0.610 15000.000 0.000 -0.835
83 249.00 1500.00 208 478 0.740 10000.000 0.000 0.610 15000.000 0.000 -0.835
84 252.00 1500.00 254 497 0.740 10000.000 0.000 0.610 15000.000 0.000 -0.835
85 255.00 1500.00 246 513 0.740 10000.000 0.000 0.610 15000.000 0.000 -0.835
86 258.00 1500.00 217 612 0.740 10000.000 0.000 0.610 15000.000 0.000 -0.835
87 261.00 1500.00 227 592 0.740 10000.000 0.000 0.610 15000.000 0.000 -0.835
88 264.00 1500.00 245 606 0.740 10000.000 0.000 0.610 15000.000 0.000 -0.835
89 267.00 1500.00 215 642 0.740 10000.000 0.000 0.610 15000.000 0.000 -0.835
90 270.00 1500.00 223 672 0.740 10000.000 0.000 0.610 15000.000 0.000 -0.835
91 273.00 1500.00 192 657 0.740 10000.000 0.000 0.610 15000.000 0.000 -0.835
92 276.00 1500.00 215 703 0.740 10000.000 0.000 0.610 15000.000 0.000 -0.835
93 279.00 1500.00 212 697 0.740 10000.000 0.000 0.610 15000.000 0.000 -0.835
94 282.00 1500.00 222 681 0.740 10000.000 0.000 0.610 15000.000 0.000 -0.835
95 285.00 1500.00 213 738 0.740 10000.000 0.000 0.610 15000.000 0.000 -0.835
96 288.00 1500.00 227 710 0.740 10000.000 0.000 0.610 15000.000 0.000 -0.835
97 291.00 1500.00 240 714 0.740 10000.000 0.000 0.610 15000.000 0.000 -0.835
98 294.00 1500.00 225 676 0.740 10000.000 0.000 0.610 15000.000 0.000 -0.835
99 297.00 1500.00 215 688 0.740 10000.000 0.000 0.610 15000.000 0.000 -0.835
100 300.00 1500.00 241 639 0.740 10000.000 0.000 0.610 15000.000 0.000 -0.835
101 303.00 1500.00 255 668 0.740 10000.000 0.000 0.610 15000.000 0.000 -0.835
102 306.00 1500.00 248 661 0.740 10000.000 0.000 0.610 15000.000 0.000 -0.835
103 309.00 1500.00 218 634 0.740 10000.000 0.000 0.610 15000.000 0.000 -0.835
104 312.00 1500.00 221 605 0.740 10000.000 0.000 0.610 15000.000 0.000 -0.835
105 315.00 1500.00 234 593 0.740 10000.000 0.000 0.610 15000.000 0.000 -0.835
106 318.00 1500.00 261 580 0.740 10000.000 0.000 0.610 15000.000 0.000 -0.835
107 321.00 1500.00 200 591 0.740 10000.000 0.000 0.610 15000.000 0.000 -0.835
108 324.00 1500.00 219 565 0.740 10000.000 0.000 0.610 15000.000 0.000 -0.835
109 327.00 1500.00 213 596 0.740 10000.000 0.000 0.610 15000.000 0.000 -0.835
110 330.00 1500.00 230 601 0.740 10000.000 0.000 0.610 15000.000 0.000 -0.835
111 333.00 1500.00 230 566 0.740 10000.000 0.000 0.610 15000.000 0.000 -0.835
112 336.00 1500.00 244 621 0.740 10000.000 0.000 0.610 15000.000 0.000 -0.835
113 339.00 1500.00 238 645 0.740 10000.000 0.000 0.610 15000.000 0.000 -0.835
114 342.00 1500.00 234 632 0.740 10000.000 0.000 0.610 15000.000 0.000 -0.835
115 345.00 1500.00 237 641 0.740 10000.000 0.000 0.610 15000.000 0.000 -0.835
116 348.00 1500.00 244 623 0.740 10000.000 0.000 0.610 15000.000 0.000 -0.835
117 351.00 1500.00 238 629 0.740 10000.000 0.000 0.610 15000.000 0.000 -0.835
118 354.00 1500.00 268 620 0.740 10000.000 0.000 0.610 15000.000 0.000 -0.835
119 357.00 1500.00 233 617 0.740 10000.000 0.000 0.610 15000.000 0.000 -0.835
120 360.00 1500.00 246 603 0.740 10000.000 0.000 0.610 15000.000 0.000 -0.835
121 363.00 1500.00 249 615 0.740 10000.000 0.000 0.610 15000.000 0.000 -0.835
122 366.00 1500.00 223 592 0.740 10000.000 0.000 0.610 15000.000 0.000 -0.835
123 369.00 1500.00 239 602 0.740 10000.000 0.000 0.610 15000.000 0.000 -0.835
124 372.00 1500.00 250 602 0.740 10000.000 0.000 0.610 15000.000 0.000 -0.835
125 375.00 1500.00 239 623 0.740 10000.000 0.000 0.610 15000.000 0.000 -0.835
126 378.00 1500.00 245 626 0.740 10000.000 0.000 0.610 15000.000 0.000 -0.835
127 381.00 1500.00 237 623 0.740 10000.000 0.000 0.610 15000.000 0.000 -0.835
128 384.00 1500.00 247 601 0.740 10000.000 0.000 0.610 15000.000 0.000 -0.835
129 387.00 1500.00 246 636 0.740 10000.000 0.000 0.610 15000.000 0.000 -0.835
130 390.00 1500.00 254 652 0.740 10000.000 0.000 0.610 15000.000 0.000 -0.835
131 393.00 1500.00 254 657 0.740 10000.000 0.000 0.610 15000.000 0.000 -0.835
132 396.00 1500.00 256 712 0.740 10000.000 0.000 0.610 15000.000 0.000 -0.835
133 399.00 1500.00 219 674 0.740 10000.000 0.000 0.610 15000.000 0.000 -0.835
134 402.00 1500.00 244 664 0.740 10000.000 0.000 0.610 15000.000 0.000 -0.835
135 405.00 1500.00 247 668 0.740 10000.000 0.000 0.610 15000.000 0.000 -0.835
136 408.00 1500.00 240 655 0.740 10000.000 0.000 0.610 15000.000 0.000 -0.835
137 411.00 1500.00 240 659 0.740 10000.000 0.000 0.610 15000.000 0.000 -0.835
138 414.00 1500.00 239 684 0.740 10000.000 0.000 0.610 15000.000 0.000 -0.835
139 417.00 1500.00 261 682 0.740 10000.000 0.000 0.610 15000.000 0.000 -0.835
140 420.00 1500.00 231 635 0.740 10000.000 0.000 0.610 15000.000 0.000 -0.835
141 423.00 1500.00 225 659 0.740 10000.000 0.000 0.610 15000.000 0.000 -0.835
142 426.00 1500.00 210 632 0.740 10000.000 0.000 0.610 15000.000 0.000 -0.835
143 429.00 1500.00 232 659 0.740 10000.000 0.000 0.610 15000.000 0.000 -0.835
144 432.00 1500.00 226 636 0.740 10000.000 0.000 0.610 15000.000 0.000 -0.835
