# BinNR microsec tot-time (s)  O-Beam AUX Ampl_1(V) f_1(Hz) phase_1(deg) Ampl_2(V) f_2(Hz) phase_2(deg) chi(pos)
0 0.00 1500.00 662 1830 0.740 10000.000 0.000 0.610 15000.000 0.000 -0.176
1 3.00 1500.00 1214 3621 0.740 10000.000 0.000 0.610 15000.000 0.000 -0.176
2 6.00 1500.00 1240 3626 0.740 10000.000 0.000 0.610 15000.000 0.000 -0.176
3 9.00 1500.00 1276 3488 0.740 10000.000 0.000 0.610 15000.000 0.000 -0.176
4 12.00 1500.00 1224 3665 0.740 10000.000 0.000 0.610 15000.000 0.000 -0.176
5 15.00 1500.00 1190 3668 0.740 10000.000 0.000 0.610 15000.000 0.000 -0.176
6 18.00 1500.00 1195 3934 0.740 10000.000 0.000 0.610 15000.000 0.000 -0.176
7 21.00 1500.00 1277 3630 0.740 10000.000 0.000 0.610 15000.000 0.000 -0.176
8 24.00 1500.00 1268 3782 0.740 10000.000 0.000 0.610 15000.000 0.000 -0.176
9 27.00 1500.00 1253 3882 0.740 10000.000 0.000 0.610 15000.000 0.000 -0.176
10 30.00 1500.00 1212 3811 0.740 10000.000 0.000 0.610 15000.000 0.000 -0.176
11 33.00 1500.00 1284 3738 0.740 10000.000 0.000 0.610 15000.000 0.000 -0.176
12 36.00 1500.00 1252 3851 0.740 10000.000 0.000 0.610 15000.000 0.000 -0.176
13 39.00 1500.00 1240 3852 0.740 10000.000 0.000 0.610 15000.000 0.000 -0.176
14 42.00 1500.00 1216 3838 0.740 10000.000 0.000 0.610 15000.000 0.000 -0.176
15 45.00 1500.00 1228 3603 0.740 10000.000 0.000 0.610 15000.000 0.000 -0.176
16 48.00 1500.00 1294 3690 0.740 10000.000 0.000 0.610 15000.000 0.000 -0.176
17 51.00 1500.00 1270 3570 0.740 10000.000 0.000 0.610 15000.000 0.000 -0.176
18 54.00 1500.00 1189 3713 0.740 10000.000 0.000 0.610 15000.000 0.000 -0.176
19 57.00 1500.00 1218 3722 0.740 10000.000 0.000 0.610 15000.000 0.000 -0.176
20 60.00 1500.00 1218 3841 0.740 10000.000 0.000 0.610 15000.000 0.000 -0.176
21 63.00 1500.00 1225 3703 0.740 10000.000 0.000 0.610 15000.000 0.000 -0.176
22 66.00 1500.00 1225 3817 0.740 10000.000 0.000 0.610 15000.000 0.000 -0.176
23 69.00 1500.00 1253 3745 0.740 10000.000 0.000 0.610 15000.000 0.000 -0.176
24 72.00 1500.00 1241 3895 0.740 10000.000 0.000 0.610 15000.000 0.000 -0.176
25 75.00 1500.00 1222 3706 0.740 10000.000 0.000 0.610 15000.000 0.000 -0.176
26 78.00 1500.00 1158 3757 0.740 10000.000 0.000 0.610 15000.000 0.000 -0.176
27 81.00 1500.00 1170 3741 0.740 10000.000 0.000 0.610 15000.000 0.000 -0.176
28 84.00 1500.00 1146 3684 0.740 10000.000 0.000 0.610 15000.000 0.000 -0.176
29 87.00 1500.00 1153 3641 0.740 10000.000 0.000 0.610 15000.000 0.000 -0.176
30 90.00 1500.00 1194 3701 0.740 10000.000 0.000 0.610 15000.000 0.000 -0.176
31 93.00 1500.00 1174 3623 0.740 10000.000 0.000 0.610 15000.000 0.000 -0.176
32 96.00 1500.00 1211 3750 0.740 10000.000 0.000 0.610 15000.000 0.000 -0.176
33 99.00 1500.00 1268 3659 0.740 10000.000 0.000 0.610 15000.000 0.000 -0.176
34 102.00 1500.00 1181 3777 0.740 10000.000 0.000 0.610 15000.000 0.000 -0.176
35 105.00 1500.00 1178 3882 0.740 10000.000 0.000 0.610 15000.000 0.000 -0.176
36 108.00 1500.00 1216 3895 0.740 10000.000 0.000 0.610 15000.000 0.000 -0.176
37 111.00 1500.00 1232 3670 0.740 10000.000 0.000 0.610 15000.000 0.000 -0.176
38 114.00 1500.00 1164 3892 0.740 10000.000 0.000 0.610 15000.000 0.000 -0.176
39 117.00 1500.00 1184 3703 0.740 10000.000 0.000 0.610 15000.000 0.000 -0.176
40 120.00 1500.00 1284 3816 0.740 10000.000 0.000 0.610 15000.000 0.000 -0.176
41 123.00 1500.00 1185 3798 0.740 10000.000 0.000 0.610 15000.000 0.000 -0.176
42 126.00 1500.00 1236 3923 0.740 10000.000 0.000 0.610 15000.000 0.000 -0.176
43 129.00 1500.00 1196 3746 0.740 10000.000 0.000 0.610 15000.000 0.000 -0.176
44 132.00 1500.00 1219 3732 0.740 10000.000 0.000 0.610 15000.000 0.000 -0.176
45 135.00 1500.00 1174 3792 0.740 10000.000 0.000 0.610 15000.000 0.000 -0.176
46 138.00 1500.00 1280 3908 0.740 10000.000 0.000 0.610 15000.000 0.000 -0.176
47 141.00 1500.00 1279 3792 0.740 10000.000 0.000 0.610 15000.000 0.000 -0.176
48 144.00 1500.00 1197 3822 0.740 10000.000 0.000 0.610 15000.000 0.000 -0.176
49 147.00 1500.00 1263 3711 0.740 10000.000 0.000 0.610 15000.000 0.000 -0.176
50 150.00 1500.00 1189 3747 0.740 10000.000 0.000 0.610 15000.000 0.000 -0.176
51 153.00 1500.00 1251 3772 0.740 10000.000 0.000 0.610 15000.000 0.000 -0.176
52 156.00 1500.00 1255 3854 0.740 10000.000 0.000 0.610 15000.000 0.000 -0.176
53 159.00 1500.00 1252 3714 0.740 10000.000 0.000 0.610 15000.000 0.000 -0.176
54 162.00 1500.00 1201 3750 0.740 10000.000 0.000 0.610 15000.000 0.000 -0.176
55 165.00 1500.00 1179 3820 0.740 10000.000 0.000 0.610 15000.000 0.000 -0.176
56 168.00 1500.00 1198 3806 0.740 10000.000 0.000 0.610 15000.000 0.000 -0.176
57 171.00 1500.00 1229 3697 0.740 10000.000 0.000 0.610 15000.000 0.000 -0.176
58 174.00 1500.00 1258 3603 0.740 10000.000 0.000 0.610 15000.000 0.000 -0.176
59 177.00 1500.00 1223 3748 0.740 10000.000 0.000 0.610 15000.000 0.000 -0.176
60 180.00 1500.00 1235 3777 0.740 10000.000 0.000 0.610 15000.000 0.000 -0.176
61 183.00 1500.00 1216 3624 0.740 10000.000 0.000 0.610 15000.000 0.000 -0.176
62 186.00 1500.00 1239 3801 0.740 10000.000 0.000 0.610 15000.000 0.000 -0.176
63 189.00 1500.00 1177 3837 0.740 10000.000 0.000 0.610 15000.000 0.000 -0.176
64 192.00 1500.00 1216 3793 0.740 10000.000 0.000 0.610 15000.000 0.000 -0.176
65 195.00 1500.00 1240 3655 0.740 10000.000 0.000 0.610 15000.000 0.000 -0.176
66 198.00 1500.00 1267 3732 0.740 10000.000 0.000 0.610 15000.000 0.000 -0.176
67 201.00 1500.00 1209 3657 0.740 10000.000 0.000 0.610 15000.000 0.000 -0.176
68 204.00 1500.00 1201 3580 0.740 10000.000 0.000 0.610 15000.000 0.000 -0.176
69 207.00 1500.00 1151 3537 0.740 10000.000 0.000 0.610 15000.000 0.000 -0.176
70 210.00 1500.00 1248 3617 0.740 10000.000 0.000 0.610 15000.000 0.000 -0.176
71 213.00 1500.00 1226 3737 0.740 10000.000 0.000 0.610 15000.000 0.000 -0.176
72 216.00 1500.00 1228 3763 0.740 10000.000 0.000 0.610 15000.000 0.000 -0.176
73 219.00 1500.00 1237 3726 0.740 10000.000 0.000 0.610 15000.000 0.000 -0.176
74 222.00 1500.00 1296 3796 0.740 10000.000 0.000 0.610 15000.000 0.000 -0.176
75 225.00 1500.00 1251 3780 0.740 10000.000 0.000 0.610 15000.000 0.000 -0.176
76 228.00 1500.00 1287 3883 0.740 10000.000 0.000 0.610 15000.000 0.000 -0.176
77 231.00 1500.00 1247 3732 0.740 10000.000 0.000 0.610 15000.000 0.000 -0.176
78 234.00 1500.00 1263 3705 0.740 10000.000 0.000 0.610 15000.000 0.000 -0.176
79 237.00 1500.00 1233 3523 0.740 10000.000 0.000 0.610 15000.000 0.000 -0.176
80 240.00 1500.00 1208 3653 0.740 10000.000 0.000 0.610 15000.000 0.000 -0.176
81 243.00 1500.00 1204 3454 0.740 10000.000 0.000 0.610 15000.000 0.000 -0.176
82 246.00 1500.00 1184 3530 0.740 10000.000 0.000 0.610 15000.000 0.000 -0.176
83 249.00 1500.00 1181 3450 0.740 10000.000 0.000 0.610 15000.000 0.000 -0.176
84 252.00 1500.00 1279 3522 0.740 10000.000 0.000 0.610 15000.000 0.000 -0.176
85 255.00 1500.00 1229 3444 0.740 10000.000 0.000 0.610 15000.000 0.000 -0.176
86 258.00 1500.00 1252 3794 0.740 10000.000 0.000 0.610 15000.000 0.000 -0.176
87 261.00 1500.00 1225 3640 0.740 10000.000 0.000 0.610 15000.000 0.000 -0.176
88 264.00 1500.00 1211 3699 0.740 10000.000 0.000 0.610 15000.000 0.000 -0.176
89 267.00 1500.00 1193 3815 0.740 10000.000 0.000 0.610 15000.000 0.000 -0.176
90 270.00 1500.00 1223 3716 0.740 10000.000 0.000 0.610 15000.000 0.000 -0.176
91 273.00 1500.00 1190 3800 0.740 10000.000 0.000 0.610 15000.000 0.000 -0.176
92 276.00 1500.00 1207 3697 0.740 10000.000 0.000 0.610 15000.000 0.000 -0.176
93 279.00 1500.00 1226 3709 0.740 10000.000 0.000 0.610 15000.000 0.000 -0.176
94 282.00 1500.00 1231 3660 0.740 10000.000 0.000 0.610 15000.000 0.000 -0.176
95 285.00 1500.00 1230 3626 0.740 10000.000 0.000 0.610 15000.000 0.000 -0.176
96 288.00 1500.00 1280 3739 0.740 10000.000 0.000 0.610 15000.000 0.000 -0.176
97 291.00 1500.00 1229 3649 0.740 10000.000 0.000 0.610 15000.000 0.000 -0.176
98 294.00 1500.00 1250 3728 0.740 10000.000 0.000 0.610 15000.000 0.000 -0.176
99 297.00 1500.00 1180 3612 0.740 10000.000 0.000 0.610 15000.000 0.000 -0.176
100 300.00 1500.00 1227 3789 0.740 10000.000 0.000 0.610 15000.000 0.000 -0.176
101 303.00 1500.00 1180 3776 0.740 10000.000 0.000 0.610 15000.000 0.000 -0.176
102 306.00 1500.00 1290 3815 0.740 10000.000 0.000 0.610 15000.000 0.000 -0.176
103 309.00 1500.00 1223 3775 0.740 10000.000 0.000 0.610 15000.000 0.000 -0.176
104 312.00 1500.00 1332 3734 0.740 10000.000 0.000 0.610 15000.000 0.000 -0.176
105 315.00 1500.00 1220 3761 0.740 10000.000 0.000 0.610 15000.000 0.000 -0.176
106 318.00 1500.00 1243 3696 0.740 10000.000 0.000 0.610 15000.000 0.000 -0.176
107 321.00 1500.00 1203 3719 0.740 10000.000 0.000 0.610 15000.000 0.000 -0.176
108 324.00 1500.00 1261 3667 0.740 10000.000 0.000 0.610 15000.000 0.000 -0.176
109 327.00 1500.00 1207 3687 0.740 10000.000 0.000 0.610 15000.000 0.000 -0.176
110 330.00 1500.00 1268 3743 0.740 10000.000 0.000 0.610 15000.000 0.000 -0.176
111 333.00 1500.00 1264 3789 0.740 10000.000 0.000 0.610 15000.000 0.000 -0.176
112 336.00 1500.00 1323 3809 0.740 10000.000 0.000 0.610 15000.000 0.000 -0.176
113 339.00 1500.00 1259 3795 0.740 10000.000 0.000 0.610 15000.000 0.000 -0.176
114 342.00 1500.00 1253 3887 0.740 10000.000 0.000 0.610 15000.000 0.000 -0.176
115 345.00 1500.00 1210 3749 0.740 10000.000 0.000 0.610 15000.000 0.000 -0.176
116 348.00 1500.00 1241 3837 0.740 10000.000 0.000 0.610 15000.000 0.000 -0.176
117 351.00 1500.00 1269 3691 0.740 10000.000 0.000 0.610 15000.000 0.000 -0.176
118 354.00 1500.00 1185 3949 0.740 10000.000 0.000 0.610 15000.000 0.000 -0.176
119 357.00 1500.00 1231 3687 0.740 10000.000 0.000 0.610 15000.000 0.000 -0.176
120 360.00 1500.00 1309 3844 0.740 10000.000 0.000 0.610 15000.000 0.000 -0.176
121 363.00 1500.00 1231 3877 0.740 10000.000 0.000 0.610 15000.000 0.000 -0.176
122 366.00 1500.00 1241 3771 0.740 10000.000 0.000 0.610 15000.000 0.000 -0.176
123 369.00 1500.00 1189 3679 0.740 10000.000 0.000 0.610 15000.000 0.000 -0.176
124 372.00 1500.00 1225 3778 0.740 10000.000 0.000 0.610 15000.000 0.000 -0.176
125 375.00 1500.00 1180 3660 0.740 10000.000 0.000 0.610 15000.000 0.000 -0.176
126 378.00 1500.00 1245 3823 0.740 10000.000 0.000 0.610 15000.000 0.000 -0.176
127 381.00 1500.00 1226 3749 0.740 10000.000 0.000 0.610 15000.000 0.000 -0.176
128 384.00 1500.00 1172 3715 0.740 10000.000 0.000 0.610 15000.000 0.000 -0.176
129 387.00 1500.00 1208 3718 0.740 10000.000 0.000 0.610 15000.000 0.000 -0.176
130 390.00 1500.00 1216 3797 0.740 10000.000 0.000 0.610 15000.000 0.000 -0.176
131 393.00 1500.00 1194 3798 0.740 10000.000 0.000 0.610 15000.000 0.000 -0.176
132 396.00 1500.00 1252 3781 0.740 10000.000 0.000 0.610 15000.000 0.000 -0.176
133 399.00 1500.00 1195 3703 0.740 10000.000 0.000 0.610 15000.000 0.000 -0.176
134 402.00 1500.00 1342 3722 0.740 10000.000 0.000 0.610 15000.000 0.000 -0.176
135 405.00 1500.00 1219 3663 0.740 10000.000 0.000 0.610 15000.000 0.000 -0.176
136 408.00 1500.00 1268 3703 0.740 10000.000 0.000 0.610 15000.000 0.000 -0.176
137 411.00 1500.00 1243 3642 0.740 10000.000 0.000 0.610 15000.000 0.000 -0.176
138 414.00 1500.00 1224 3692 0.740 10000.000 0.000 0.610 15000.000 0.000 -0.176
139 417.00 1500.00 1255 3646 0.740 10000.000 0.000 0.610 15000.000 0.000 -0.176
140 420.00 1500.00 1221 3802 0.740 10000.000 0.000 0.610 15000.000 0.000 -0.176
141 423.00 1500.00 1285 3680 0.740 10000.000 0.000 0.610 15000.000 0.000 -0.176
142 426.00 1500.00 1215 3760 0.740 10000.000 0.000 0.610 15000.000 0.000 -0.176
143 429.00 1500.00 1221 3800 0.740 10000.000 0.000 0.610 15000.000 0.000 -0.176
144 432.00 1500.00 1261 3778 0.740 10000.000 0.000 0.610 15000.000 0.000 -0.176
