# BinNR microsec tot-time (s)  O-Beam AUX Ampl_1(V) f_1(Hz) phase_1(deg) Ampl_2(V) f_2(Hz) phase_2(deg) chi(pos)
0 0.00 1500.03 236 400 0.740 10000.000 0.000 0.610 15000.000 0.000 0.659
1 3.00 1500.03 461 718 0.740 10000.000 0.000 0.610 15000.000 0.000 0.659
2 6.00 1500.03 513 820 0.740 10000.000 0.000 0.610 15000.000 0.000 0.659
3 9.00 1500.03 459 809 0.740 10000.000 0.000 0.610 15000.000 0.000 0.659
4 12.00 1500.03 464 795 0.740 10000.000 0.000 0.610 15000.000 0.000 0.659
5 15.00 1500.03 428 770 0.740 10000.000 0.000 0.610 15000.000 0.000 0.659
6 18.00 1500.03 501 728 0.740 10000.000 0.000 0.610 15000.000 0.000 0.659
7 21.00 1500.03 467 670 0.740 10000.000 0.000 0.610 15000.000 0.000 0.659
8 24.00 1500.03 493 619 0.740 10000.000 0.000 0.610 15000.000 0.000 0.659
9 27.00 1500.03 440 653 0.740 10000.000 0.000 0.610 15000.000 0.000 0.659
10 30.00 1500.03 460 576 0.740 10000.000 0.000 0.610 15000.000 0.000 0.659
11 33.00 1500.03 466 603 0.740 10000.000 0.000 0.610 15000.000 0.000 0.659
12 36.00 1500.03 487 587 0.740 10000.000 0.000 0.610 15000.000 0.000 0.659
13 39.00 1500.03 416 583 0.740 10000.000 0.000 0.610 15000.000 0.000 0.659
14 42.00 1500.03 499 652 0.740 10000.000 0.000 0.610 15000.000 0.000 0.659
15 45.00 1500.03 515 642 0.740 10000.000 0.000 0.610 15000.000 0.000 0.659
16 48.00 1500.03 503 721 0.740 10000.000 0.000 0.610 15000.000 0.000 0.659
17 51.00 1500.03 502 724 0.740 10000.000 0.000 0.610 15000.000 0.000 0.659
18 54.00 1500.03 538 753 0.740 10000.000 0.000 0.610 15000.000 0.000 0.659
19 57.00 1500.03 475 730 0.740 10000.000 0.000 0.610 15000.000 0.000 0.659
20 60.00 1500.03 485 736 0.740 10000.000 0.000 0.610 15000.000 0.000 0.659
21 63.00 1500.03 515 698 0.740 10000.000 0.000 0.610 15000.000 0.000 0.659
22 66.00 1500.03 494 680 0.740 10000.000 0.000 0.610 15000.000 0.000 0.659
23 69.00 1500.03 526 640 0.740 10000.000 0.000 0.610 15000.000 0.000 0.659
24 72.00 1500.03 514 567 0.740 10000.000 0.000 0.610 15000.000 0.000 0.659
25 75.00 1500.03 505 619 0.740 10000.000 0.000 0.610 15000.000 0.000 0.659
26 78.00 1500.03 535 715 0.740 10000.000 0.000 0.610 15000.000 0.000 0.659
27 81.00 1500.03 553 735 0.740 10000.000 0.000 0.610 15000.000 0.000 0.659
28 84.00 1500.03 510 788 0.740 10000.000 0.000 0.610 15000.000 0.000 0.659
29 87.00 1500.03 510 796 0.740 10000.000 0.000 0.610 15000.000 0.000 0.659
30 90.00 1500.03 529 750 0.740 10000.000 0.000 0.610 15000.000 0.000 0.659
31 93.00 1500.03 469 804 0.740 10000.000 0.000 0.610 15000.000 0.000 0.659
32 96.00 1500.03 473 708 0.740 10000.000 0.000 0.610 15000.000 0.000 0.659
33 99.00 1500.03 515 679 0.740 10000.000 0.000 0.610 15000.000 0.000 0.659
34 102.00 1500.03 480 594 0.740 10000.000 0.000 0.610 15000.000 0.000 0.659
35 105.00 1500.03 501 585 0.740 10000.000 0.000 0.610 15000.000 0.000 0.659
36 108.00 1500.03 490 629 0.740 10000.000 0.000 0.610 15000.000 0.000 0.659
37 111.00 1500.03 455 654 0.740 10000.000 0.000 0.610 15000.000 0.000 0.659
38 114.00 1500.03 469 626 0.740 10000.000 0.000 0.610 15000.000 0.000 0.659
39 117.00 1500.03 496 650 0.740 10000.000 0.000 0.610 15000.000 0.000 0.659
40 120.00 1500.03 485 663 0.740 10000.000 0.000 0.610 15000.000 0.000 0.659
41 123.00 1500.03 475 717 0.740 10000.000 0.000 0.610 15000.000 0.000 0.659
42 126.00 1500.03 510 683 0.740 10000.000 0.000 0.610 15000.000 0.000 0.659
43 129.00 1500.03 492 666 0.740 10000.000 0.000 0.610 15000.000 0.000 0.659
44 132.00 1500.03 476 670 0.740 10000.000 0.000 0.610 15000.000 0.000 0.659
45 135.00 1500.03 485 677 0.740 10000.000 0.000 0.610 15000.000 0.000 0.659
46 138.00 1500.03 476 627 0.740 10000.000 0.000 0.610 15000.000 0.000 0.659
47 141.00 1500.03 409 619 0.740 10000.000 0.000 0.610 15000.000 0.000 0.659
48 144.00 1500.03 454 691 0.740 10000.000 0.000 0.610 15000.000 0.000 0.659
49 147.00 1500.03 457 613 0.740 10000.000 0.000 0.610 15000.000 0.000 0.659
50 150.00 1500.03 457 649 0.740 10000.000 0.000 0.610 15000.000 0.000 0.659
51 153.00 1500.03 427 631 0.740 10000.000 0.000 0.610 15000.000 0.000 0.659
52 156.00 1500.03 502 671 0.740 10000.000 0.000 0.610 15000.000 0.000 0.659
53 159.00 1500.03 475 620 0.740 10000.000 0.000 0.610 15000.000 0.000 0.659
54 162.00 1500.03 466 666 0.740 10000.000 0.000 0.610 15000.000 0.000 0.659
55 165.00 1500.03 443 689 0.740 10000.000 0.000 0.610 15000.000 0.000 0.659
56 168.00 1500.03 467 648 0.740 10000.000 0.000 0.610 15000.000 0.000 0.659
57 171.00 1500.03 467 625 0.740 10000.000 0.000 0.610 15000.000 0.000 0.659
58 174.00 1500.03 472 712 0.740 10000.000 0.000 0.610 15000.000 0.000 0.659
59 177.00 1500.03 509 645 0.740 10000.000 0.000 0.610 15000.000 0.000 0.659
60 180.00 1500.03 463 652 0.740 10000.000 0.000 0.610 15000.000 0.000 0.659
61 183.00 1500.03 477 670 0.740 10000.000 0.000 0.610 15000.000 0.000 0.659
62 186.00 1500.03 490 656 0.740 10000.000 0.000 0.610 15000.000 0.000 0.659
63 189.00 1500.03 522 614 0.740 10000.000 0.000 0.610 15000.000 0.000 0.659
64 192.00 1500.03 515 640 0.740 10000.000 0.000 0.610 15000.000 0.000 0.659
65 195.00 1500.03 460 619 0.740 10000.000 0.000 0.610 15000.000 0.000 0.659
66 198.00 1500.03 495 716 0.740 10000.000 0.000 0.610 15000.000 0.000 0.659
67 201.00 1500.03 477 674 0.740 10000.000 0.000 0.610 15000.000 0.000 0.659
68 204.00 1500.03 432 727 0.740 10000.000 0.000 0.610 15000.000 0.000 0.659
69 207.00 1500.03 438 727 0.740 10000.000 0.000 0.610 15000.000 0.000 0.659
70 210.00 1500.03 469 796 0.740 10000.000 0.000 0.610 15000.000 0.000 0.659
71 213.00 1500.03 463 747 0.740 10000.000 0.000 0.610 15000.000 0.000 0.659
72 216.00 1500.03 418 747 0.740 10000.000 0.000 0.610 15000.000 0.000 0.659
73 219.00 1500.03 434 706 0.740 10000.000 0.000 0.610 15000.000 0.000 0.659
74 222.00 1500.03 481 635 0.740 10000.000 0.000 0.610 15000.000 0.000 0.659
75 225.00 1500.03 490 683 0.740 10000.000 0.000 0.610 15000.000 0.000 0.659
76 228.00 1500.03 471 625 0.740 10000.000 0.000 0.610 15000.000 0.000 0.659
77 231.00 1500.03 452 628 0.740 10000.000 0.000 0.610 15000.000 0.000 0.659
78 234.00 1500.03 473 749 0.740 10000.000 0.000 0.610 15000.000 0.000 0.659
79 237.00 1500.03 488 787 0.740 10000.000 0.000 0.610 15000.000 0.000 0.659
80 240.00 1500.03 516 904 0.740 10000.000 0.000 0.610 15000.000 0.000 0.659
81 243.00 1500.03 475 974 0.740 10000.000 0.000 0.610 15000.000 0.000 0.659
82 246.00 1500.03 499 1056 0.740 10000.000 0.000 0.610 15000.000 0.000 0.659
83 249.00 1500.03 488 939 0.740 10000.000 0.000 0.610 15000.000 0.000 0.659
84 252.00 1500.03 491 984 0.740 10000.000 0.000 0.610 15000.000 0.000 0.659
85 255.00 1500.03 461 855 0.740 10000.000 0.000 0.610 15000.000 0.000 0.659
86 258.00 1500.03 495 904 0.740 10000.000 0.000 0.610 15000.000 0.000 0.659
87 261.00 1500.03 543 771 0.740 10000.000 0.000 0.610 15000.000 0.000 0.659
88 264.00 1500.03 462 667 0.740 10000.000 0.000 0.610 15000.000 0.000 0.659
89 267.00 1500.03 470 624 0.740 10000.000 0.000 0.610 15000.000 0.000 0.659
90 270.00 1500.03 522 648 0.740 10000.000 0.000 0.610 15000.000 0.000 0.659
91 273.00 1500.03 446 656 0.740 10000.000 0.000 0.610 15000.000 0.000 0.659
92 276.00 1500.03 489 684 0.740 10000.000 0.000 0.610 15000.000 0.000 0.659
93 279.00 1500.03 501 724 0.740 10000.000 0.000 0.610 15000.000 0.000 0.659
94 282.00 1500.03 499 743 0.740 10000.000 0.000 0.610 15000.000 0.000 0.659
95 285.00 1500.03 494 742 0.740 10000.000 0.000 0.610 15000.000 0.000 0.659
96 288.00 1500.03 517 790 0.740 10000.000 0.000 0.610 15000.000 0.000 0.659
97 291.00 1500.03 498 758 0.740 10000.000 0.000 0.610 15000.000 0.000 0.659
98 294.00 1500.03 435 780 0.740 10000.000 0.000 0.610 15000.000 0.000 0.659
99 297.00 1500.03 448 705 0.740 10000.000 0.000 0.610 15000.000 0.000 0.659
100 300.00 1500.03 462 647 0.740 10000.000 0.000 0.610 15000.000 0.000 0.659
101 303.00 1500.03 478 623 0.740 10000.000 0.000 0.610 15000.000 0.000 0.659
102 306.00 1500.03 503 618 0.740 10000.000 0.000 0.610 15000.000 0.000 0.659
103 309.00 1500.03 477 613 0.740 10000.000 0.000 0.610 15000.000 0.000 0.659
104 312.00 1500.03 525 665 0.740 10000.000 0.000 0.610 15000.000 0.000 0.659
105 315.00 1500.03 474 670 0.740 10000.000 0.000 0.610 15000.000 0.000 0.659
106 318.00 1500.03 485 708 0.740 10000.000 0.000 0.610 15000.000 0.000 0.659
107 321.00 1500.03 485 667 0.740 10000.000 0.000 0.610 15000.000 0.000 0.659
108 324.00 1500.03 499 653 0.740 10000.000 0.000 0.610 15000.000 0.000 0.659
109 327.00 1500.03 428 704 0.740 10000.000 0.000 0.610 15000.000 0.000 0.659
110 330.00 1500.03 489 665 0.740 10000.000 0.000 0.610 15000.000 0.000 0.659
111 333.00 1500.03 432 681 0.740 10000.000 0.000 0.610 15000.000 0.000 0.659
112 336.00 1500.03 438 666 0.740 10000.000 0.000 0.610 15000.000 0.000 0.659
113 339.00 1500.03 446 584 0.740 10000.000 0.000 0.610 15000.000 0.000 0.659
114 342.00 1500.03 459 632 0.740 10000.000 0.000 0.610 15000.000 0.000 0.659
115 345.00 1500.03 482 662 0.740 10000.000 0.000 0.610 15000.000 0.000 0.659
116 348.00 1500.03 508 610 0.740 10000.000 0.000 0.610 15000.000 0.000 0.659
117 351.00 1500.03 469 617 0.740 10000.000 0.000 0.610 15000.000 0.000 0.659
118 354.00 1500.03 497 617 0.740 10000.000 0.000 0.610 15000.000 0.000 0.659
119 357.00 1500.03 481 660 0.740 10000.000 0.000 0.610 15000.000 0.000 0.659
120 360.00 1500.03 481 636 0.740 10000.000 0.000 0.610 15000.000 0.000 0.659
121 363.00 1500.03 463 657 0.740 10000.000 0.000 0.610 15000.000 0.000 0.659
122 366.00 1500.03 490 667 0.740 10000.000 0.000 0.610 15000.000 0.000 0.659
123 369.00 1500.03 502 646 0.740 10000.000 0.000 0.610 15000.000 0.000 0.659
124 372.00 1500.03 481 653 0.740 10000.000 0.000 0.610 15000.000 0.000 0.659
125 375.00 1500.03 446 646 0.740 10000.000 0.000 0.610 15000.000 0.000 0.659
126 378.00 1500.03 472 701 0.740 10000.000 0.000 0.610 15000.000 0.000 0.659
127 381.00 1500.03 456 585 0.740 10000.000 0.000 0.610 15000.000 0.000 0.659
128 384.00 1500.03 446 605 0.740 10000.000 0.000 0.610 15000.000 0.000 0.659
129 387.00 1500.03 485 621 0.740 10000.000 0.000 0.610 15000.000 0.000 0.659
130 390.00 1500.03 461 543 0.740 10000.000 0.000 0.610 15000.000 0.000 0.659
131 393.00 1500.03 457 647 0.740 10000.000 0.000 0.610 15000.000 0.000 0.659
132 396.00 1500.03 451 705 0.740 10000.000 0.000 0.610 15000.000 0.000 0.659
133 399.00 1500.03 465 682 0.740 10000.000 0.000 0.610 15000.000 0.000 0.659
134 402.00 1500.03 524 698 0.740 10000.000 0.000 0.610 15000.000 0.000 0.659
135 405.00 1500.03 444 782 0.740 10000.000 0.000 0.610 15000.000 0.000 0.659
136 408.00 1500.03 470 806 0.740 10000.000 0.000 0.610 15000.000 0.000 0.659
137 411.00 1500.03 440 811 0.740 10000.000 0.000 0.610 15000.000 0.000 0.659
138 414.00 1500.03 466 798 0.740 10000.000 0.000 0.610 15000.000 0.000 0.659
139 417.00 1500.03 443 701 0.740 10000.000 0.000 0.610 15000.000 0.000 0.659
140 420.00 1500.03 478 651 0.740 10000.000 0.000 0.610 15000.000 0.000 0.659
141 423.00 1500.03 468 631 0.740 10000.000 0.000 0.610 15000.000 0.000 0.659
142 426.00 1500.03 458 617 0.740 10000.000 0.000 0.610 15000.000 0.000 0.659
143 429.00 1500.03 464 645 0.740 10000.000 0.000 0.610 15000.000 0.000 0.659
144 432.00 1500.03 458 669 0.740 10000.000 0.000 0.610 15000.000 0.000 0.659
