# BinNR microsec tot-time (s)  O-Beam AUX Ampl(V) f(Hz) phase(deg) chi(pos)
0 0.00 1200.02 170 522 1.100 10000.000 0.000 1.318
1 3.00 1200.02 335 1085 1.100 10000.000 0.000 1.318
2 6.00 1200.02 368 1090 1.100 10000.000 0.000 1.318
3 9.00 1200.02 345 1100 1.100 10000.000 0.000 1.318
4 12.00 1200.02 348 1094 1.100 10000.000 0.000 1.318
5 15.00 1200.02 382 1113 1.100 10000.000 0.000 1.318
6 18.00 1200.02 358 1069 1.100 10000.000 0.000 1.318
7 21.00 1200.02 355 1098 1.100 10000.000 0.000 1.318
8 24.00 1200.02 392 1110 1.100 10000.000 0.000 1.318
9 27.00 1200.02 385 1057 1.100 10000.000 0.000 1.318
10 30.00 1200.02 389 1081 1.100 10000.000 0.000 1.318
11 33.00 1200.02 349 1092 1.100 10000.000 0.000 1.318
12 36.00 1200.02 397 1007 1.100 10000.000 0.000 1.318
13 39.00 1200.02 378 1069 1.100 10000.000 0.000 1.318
14 42.00 1200.02 412 1093 1.100 10000.000 0.000 1.318
15 45.00 1200.02 347 1027 1.100 10000.000 0.000 1.318
16 48.00 1200.02 361 1104 1.100 10000.000 0.000 1.318
17 51.00 1200.02 390 1062 1.100 10000.000 0.000 1.318
18 54.00 1200.02 348 1121 1.100 10000.000 0.000 1.318
19 57.00 1200.02 360 1046 1.100 10000.000 0.000 1.318
20 60.00 1200.02 382 1105 1.100 10000.000 0.000 1.318
21 63.00 1200.02 316 1073 1.100 10000.000 0.000 1.318
22 66.00 1200.02 376 1067 1.100 10000.000 0.000 1.318
23 69.00 1200.02 366 1007 1.100 10000.000 0.000 1.318
24 72.00 1200.02 341 1121 1.100 10000.000 0.000 1.318
25 75.00 1200.02 370 1057 1.100 10000.000 0.000 1.318
26 78.00 1200.02 394 1051 1.100 10000.000 0.000 1.318
27 81.00 1200.02 360 1094 1.100 10000.000 0.000 1.318
28 84.00 1200.02 350 1127 1.100 10000.000 0.000 1.318
29 87.00 1200.02 322 1055 1.100 10000.000 0.000 1.318
30 90.00 1200.02 368 1062 1.100 10000.000 0.000 1.318
31 93.00 1200.02 334 1051 1.100 10000.000 0.000 1.318
32 96.00 1200.02 359 1063 1.100 10000.000 0.000 1.318
33 99.00 1200.02 364 1121 1.100 10000.000 0.000 1.318
34 102.00 1200.02 334 1077 1.100 10000.000 0.000 1.318
35 105.00 1200.02 382 1045 1.100 10000.000 0.000 1.318
36 108.00 1200.02 382 1093 1.100 10000.000 0.000 1.318
37 111.00 1200.02 366 1061 1.100 10000.000 0.000 1.318
38 114.00 1200.02 387 1071 1.100 10000.000 0.000 1.318
39 117.00 1200.02 369 1083 1.100 10000.000 0.000 1.318
40 120.00 1200.02 356 1077 1.100 10000.000 0.000 1.318
41 123.00 1200.02 361 1047 1.100 10000.000 0.000 1.318
42 126.00 1200.02 417 1075 1.100 10000.000 0.000 1.318
43 129.00 1200.02 368 1075 1.100 10000.000 0.000 1.318
44 132.00 1200.02 400 1022 1.100 10000.000 0.000 1.318
45 135.00 1200.02 414 1042 1.100 10000.000 0.000 1.318
46 138.00 1200.02 339 1098 1.100 10000.000 0.000 1.318
47 141.00 1200.02 355 1071 1.100 10000.000 0.000 1.318
48 144.00 1200.02 391 1060 1.100 10000.000 0.000 1.318
49 147.00 1200.02 388 1084 1.100 10000.000 0.000 1.318
50 150.00 1200.02 366 1039 1.100 10000.000 0.000 1.318
51 153.00 1200.02 339 1047 1.100 10000.000 0.000 1.318
52 156.00 1200.02 398 1123 1.100 10000.000 0.000 1.318
53 159.00 1200.02 381 1061 1.100 10000.000 0.000 1.318
54 162.00 1200.02 374 1054 1.100 10000.000 0.000 1.318
55 165.00 1200.02 351 1068 1.100 10000.000 0.000 1.318
56 168.00 1200.02 388 1132 1.100 10000.000 0.000 1.318
57 171.00 1200.02 401 1027 1.100 10000.000 0.000 1.318
58 174.00 1200.02 344 1065 1.100 10000.000 0.000 1.318
59 177.00 1200.02 358 1067 1.100 10000.000 0.000 1.318
60 180.00 1200.02 375 1062 1.100 10000.000 0.000 1.318
61 183.00 1200.02 344 1068 1.100 10000.000 0.000 1.318
62 186.00 1200.02 361 1072 1.100 10000.000 0.000 1.318
63 189.00 1200.02 385 1097 1.100 10000.000 0.000 1.318
64 192.00 1200.02 373 1133 1.100 10000.000 0.000 1.318
65 195.00 1200.02 388 1044 1.100 10000.000 0.000 1.318
66 198.00 1200.02 385 1105 1.100 10000.000 0.000 1.318
67 201.00 1200.02 379 1044 1.100 10000.000 0.000 1.318
68 204.00 1200.02 343 1052 1.100 10000.000 0.000 1.318
69 207.00 1200.02 374 1027 1.100 10000.000 0.000 1.318
70 210.00 1200.02 379 1026 1.100 10000.000 0.000 1.318
71 213.00 1200.02 394 1067 1.100 10000.000 0.000 1.318
72 216.00 1200.02 327 1056 1.100 10000.000 0.000 1.318
73 219.00 1200.02 335 1115 1.100 10000.000 0.000 1.318
74 222.00 1200.02 370 1115 1.100 10000.000 0.000 1.318
75 225.00 1200.02 367 1035 1.100 10000.000 0.000 1.318
76 228.00 1200.02 380 1120 1.100 10000.000 0.000 1.318
77 231.00 1200.02 328 1105 1.100 10000.000 0.000 1.318
78 234.00 1200.02 412 1085 1.100 10000.000 0.000 1.318
79 237.00 1200.02 363 1038 1.100 10000.000 0.000 1.318
80 240.00 1200.02 371 1049 1.100 10000.000 0.000 1.318
81 243.00 1200.02 372 1073 1.100 10000.000 0.000 1.318
82 246.00 1200.02 370 1099 1.100 10000.000 0.000 1.318
83 249.00 1200.02 374 1078 1.100 10000.000 0.000 1.318
84 252.00 1200.02 404 1106 1.100 10000.000 0.000 1.318
85 255.00 1200.02 340 1101 1.100 10000.000 0.000 1.318
86 258.00 1200.02 368 1144 1.100 10000.000 0.000 1.318
87 261.00 1200.02 370 1111 1.100 10000.000 0.000 1.318
88 264.00 1200.02 350 1062 1.100 10000.000 0.000 1.318
89 267.00 1200.02 349 978 1.100 10000.000 0.000 1.318
90 270.00 1200.02 397 1104 1.100 10000.000 0.000 1.318
91 273.00 1200.02 363 1055 1.100 10000.000 0.000 1.318
92 276.00 1200.02 340 1077 1.100 10000.000 0.000 1.318
93 279.00 1200.02 352 1023 1.100 10000.000 0.000 1.318
94 282.00 1200.02 359 1078 1.100 10000.000 0.000 1.318
95 285.00 1200.02 351 1177 1.100 10000.000 0.000 1.318
96 288.00 1200.02 362 1092 1.100 10000.000 0.000 1.318
97 291.00 1200.02 371 1063 1.100 10000.000 0.000 1.318
98 294.00 1200.02 339 1087 1.100 10000.000 0.000 1.318
99 297.00 1200.02 359 1051 1.100 10000.000 0.000 1.318
100 300.00 1200.02 373 1039 1.100 10000.000 0.000 1.318
101 303.00 1200.02 336 1048 1.100 10000.000 0.000 1.318
102 306.00 1200.02 359 1060 1.100 10000.000 0.000 1.318
103 309.00 1200.02 406 1095 1.100 10000.000 0.000 1.318
104 312.00 1200.02 403 1119 1.100 10000.000 0.000 1.318
105 315.00 1200.02 331 1046 1.100 10000.000 0.000 1.318
106 318.00 1200.02 393 1069 1.100 10000.000 0.000 1.318
107 321.00 1200.02 394 1145 1.100 10000.000 0.000 1.318
108 324.00 1200.02 351 1103 1.100 10000.000 0.000 1.318
109 327.00 1200.02 360 1045 1.100 10000.000 0.000 1.318
110 330.00 1200.02 405 1122 1.100 10000.000 0.000 1.318
111 333.00 1200.02 364 1074 1.100 10000.000 0.000 1.318
112 336.00 1200.02 379 1093 1.100 10000.000 0.000 1.318
113 339.00 1200.02 357 1068 1.100 10000.000 0.000 1.318
114 342.00 1200.02 385 1043 1.100 10000.000 0.000 1.318
115 345.00 1200.02 352 1093 1.100 10000.000 0.000 1.318
116 348.00 1200.02 395 1125 1.100 10000.000 0.000 1.318
117 351.00 1200.02 391 1061 1.100 10000.000 0.000 1.318
118 354.00 1200.02 365 1108 1.100 10000.000 0.000 1.318
119 357.00 1200.02 362 1072 1.100 10000.000 0.000 1.318
120 360.00 1200.02 353 1088 1.100 10000.000 0.000 1.318
121 363.00 1200.02 370 1050 1.100 10000.000 0.000 1.318
122 366.00 1200.02 370 1077 1.100 10000.000 0.000 1.318
123 369.00 1200.02 355 1109 1.100 10000.000 0.000 1.318
124 372.00 1200.02 385 1057 1.100 10000.000 0.000 1.318
125 375.00 1200.02 360 1036 1.100 10000.000 0.000 1.318
126 378.00 1200.02 360 1151 1.100 10000.000 0.000 1.318
127 381.00 1200.02 351 1041 1.100 10000.000 0.000 1.318
128 384.00 1200.02 363 1059 1.100 10000.000 0.000 1.318
129 387.00 1200.02 389 1026 1.100 10000.000 0.000 1.318
130 390.00 1200.02 345 1096 1.100 10000.000 0.000 1.318
131 393.00 1200.02 323 1014 1.100 10000.000 0.000 1.318
132 396.00 1200.02 380 980 1.100 10000.000 0.000 1.318
133 399.00 1200.02 377 1017 1.100 10000.000 0.000 1.318
134 402.00 1200.02 364 1035 1.100 10000.000 0.000 1.318
