# BinNR microsec tot-time (s)  O-Beam AUX Ampl(V) f(Hz) phase(deg) chi(pos)
0 0.00 1200.02 137 487 1.100 10000.000 0.000 1.154
1 3.00 1200.02 305 1020 1.100 10000.000 0.000 1.154
2 6.00 1200.02 313 1019 1.100 10000.000 0.000 1.154
3 9.00 1200.02 294 996 1.100 10000.000 0.000 1.154
4 12.00 1200.02 295 1013 1.100 10000.000 0.000 1.154
5 15.00 1200.02 318 995 1.100 10000.000 0.000 1.154
6 18.00 1200.02 319 1038 1.100 10000.000 0.000 1.154
7 21.00 1200.02 344 1056 1.100 10000.000 0.000 1.154
8 24.00 1200.02 321 1012 1.100 10000.000 0.000 1.154
9 27.00 1200.02 373 985 1.100 10000.000 0.000 1.154
10 30.00 1200.02 383 1070 1.100 10000.000 0.000 1.154
11 33.00 1200.02 315 1074 1.100 10000.000 0.000 1.154
12 36.00 1200.02 340 1020 1.100 10000.000 0.000 1.154
13 39.00 1200.02 334 1002 1.100 10000.000 0.000 1.154
14 42.00 1200.02 333 1043 1.100 10000.000 0.000 1.154
15 45.00 1200.02 339 1000 1.100 10000.000 0.000 1.154
16 48.00 1200.02 345 1093 1.100 10000.000 0.000 1.154
17 51.00 1200.02 304 1053 1.100 10000.000 0.000 1.154
18 54.00 1200.02 316 1054 1.100 10000.000 0.000 1.154
19 57.00 1200.02 303 1010 1.100 10000.000 0.000 1.154
20 60.00 1200.02 329 1044 1.100 10000.000 0.000 1.154
21 63.00 1200.02 309 973 1.100 10000.000 0.000 1.154
22 66.00 1200.02 331 999 1.100 10000.000 0.000 1.154
23 69.00 1200.02 334 959 1.100 10000.000 0.000 1.154
24 72.00 1200.02 332 978 1.100 10000.000 0.000 1.154
25 75.00 1200.02 309 989 1.100 10000.000 0.000 1.154
26 78.00 1200.02 326 985 1.100 10000.000 0.000 1.154
27 81.00 1200.02 309 877 1.100 10000.000 0.000 1.154
28 84.00 1200.02 308 963 1.100 10000.000 0.000 1.154
29 87.00 1200.02 309 946 1.100 10000.000 0.000 1.154
30 90.00 1200.02 311 955 1.100 10000.000 0.000 1.154
31 93.00 1200.02 310 987 1.100 10000.000 0.000 1.154
32 96.00 1200.02 343 972 1.100 10000.000 0.000 1.154
33 99.00 1200.02 307 966 1.100 10000.000 0.000 1.154
34 102.00 1200.02 318 965 1.100 10000.000 0.000 1.154
35 105.00 1200.02 298 1051 1.100 10000.000 0.000 1.154
36 108.00 1200.02 311 1034 1.100 10000.000 0.000 1.154
37 111.00 1200.02 335 1017 1.100 10000.000 0.000 1.154
38 114.00 1200.02 322 1067 1.100 10000.000 0.000 1.154
39 117.00 1200.02 364 1013 1.100 10000.000 0.000 1.154
40 120.00 1200.02 341 1023 1.100 10000.000 0.000 1.154
41 123.00 1200.02 339 1009 1.100 10000.000 0.000 1.154
42 126.00 1200.02 329 1088 1.100 10000.000 0.000 1.154
43 129.00 1200.02 350 1036 1.100 10000.000 0.000 1.154
44 132.00 1200.02 309 1056 1.100 10000.000 0.000 1.154
45 135.00 1200.02 323 1025 1.100 10000.000 0.000 1.154
46 138.00 1200.02 373 1020 1.100 10000.000 0.000 1.154
47 141.00 1200.02 336 1011 1.100 10000.000 0.000 1.154
48 144.00 1200.02 346 1102 1.100 10000.000 0.000 1.154
49 147.00 1200.02 357 1043 1.100 10000.000 0.000 1.154
50 150.00 1200.02 300 1048 1.100 10000.000 0.000 1.154
51 153.00 1200.02 347 998 1.100 10000.000 0.000 1.154
52 156.00 1200.02 365 1050 1.100 10000.000 0.000 1.154
53 159.00 1200.02 329 987 1.100 10000.000 0.000 1.154
54 162.00 1200.02 337 1023 1.100 10000.000 0.000 1.154
55 165.00 1200.02 359 1012 1.100 10000.000 0.000 1.154
56 168.00 1200.02 323 1057 1.100 10000.000 0.000 1.154
57 171.00 1200.02 301 1039 1.100 10000.000 0.000 1.154
58 174.00 1200.02 338 1011 1.100 10000.000 0.000 1.154
59 177.00 1200.02 304 943 1.100 10000.000 0.000 1.154
60 180.00 1200.02 295 1012 1.100 10000.000 0.000 1.154
61 183.00 1200.02 313 1003 1.100 10000.000 0.000 1.154
62 186.00 1200.02 320 936 1.100 10000.000 0.000 1.154
63 189.00 1200.02 312 987 1.100 10000.000 0.000 1.154
64 192.00 1200.02 326 980 1.100 10000.000 0.000 1.154
65 195.00 1200.02 336 1008 1.100 10000.000 0.000 1.154
66 198.00 1200.02 322 977 1.100 10000.000 0.000 1.154
67 201.00 1200.02 314 955 1.100 10000.000 0.000 1.154
68 204.00 1200.02 308 975 1.100 10000.000 0.000 1.154
69 207.00 1200.02 318 1044 1.100 10000.000 0.000 1.154
70 210.00 1200.02 347 959 1.100 10000.000 0.000 1.154
71 213.00 1200.02 333 1001 1.100 10000.000 0.000 1.154
72 216.00 1200.02 327 947 1.100 10000.000 0.000 1.154
73 219.00 1200.02 346 1025 1.100 10000.000 0.000 1.154
74 222.00 1200.02 297 1085 1.100 10000.000 0.000 1.154
75 225.00 1200.02 317 1048 1.100 10000.000 0.000 1.154
76 228.00 1200.02 331 978 1.100 10000.000 0.000 1.154
77 231.00 1200.02 309 1064 1.100 10000.000 0.000 1.154
78 234.00 1200.02 355 1087 1.100 10000.000 0.000 1.154
79 237.00 1200.02 332 1045 1.100 10000.000 0.000 1.154
80 240.00 1200.02 339 1070 1.100 10000.000 0.000 1.154
81 243.00 1200.02 328 1026 1.100 10000.000 0.000 1.154
82 246.00 1200.02 334 1062 1.100 10000.000 0.000 1.154
83 249.00 1200.02 324 1052 1.100 10000.000 0.000 1.154
84 252.00 1200.02 344 1075 1.100 10000.000 0.000 1.154
85 255.00 1200.02 362 1004 1.100 10000.000 0.000 1.154
86 258.00 1200.02 357 1088 1.100 10000.000 0.000 1.154
87 261.00 1200.02 314 1062 1.100 10000.000 0.000 1.154
88 264.00 1200.02 335 998 1.100 10000.000 0.000 1.154
89 267.00 1200.02 340 1008 1.100 10000.000 0.000 1.154
90 270.00 1200.02 340 1039 1.100 10000.000 0.000 1.154
91 273.00 1200.02 293 980 1.100 10000.000 0.000 1.154
92 276.00 1200.02 323 997 1.100 10000.000 0.000 1.154
93 279.00 1200.02 278 989 1.100 10000.000 0.000 1.154
94 282.00 1200.02 323 1007 1.100 10000.000 0.000 1.154
95 285.00 1200.02 299 966 1.100 10000.000 0.000 1.154
96 288.00 1200.02 308 1038 1.100 10000.000 0.000 1.154
97 291.00 1200.02 326 941 1.100 10000.000 0.000 1.154
98 294.00 1200.02 305 981 1.100 10000.000 0.000 1.154
99 297.00 1200.02 306 1014 1.100 10000.000 0.000 1.154
100 300.00 1200.02 312 975 1.100 10000.000 0.000 1.154
101 303.00 1200.02 316 966 1.100 10000.000 0.000 1.154
102 306.00 1200.02 317 999 1.100 10000.000 0.000 1.154
103 309.00 1200.02 317 984 1.100 10000.000 0.000 1.154
104 312.00 1200.02 349 1077 1.100 10000.000 0.000 1.154
105 315.00 1200.02 351 1017 1.100 10000.000 0.000 1.154
106 318.00 1200.02 329 1048 1.100 10000.000 0.000 1.154
107 321.00 1200.02 310 1001 1.100 10000.000 0.000 1.154
108 324.00 1200.02 324 1091 1.100 10000.000 0.000 1.154
109 327.00 1200.02 363 1093 1.100 10000.000 0.000 1.154
110 330.00 1200.02 328 1055 1.100 10000.000 0.000 1.154
111 333.00 1200.02 366 1003 1.100 10000.000 0.000 1.154
112 336.00 1200.02 325 1051 1.100 10000.000 0.000 1.154
113 339.00 1200.02 344 1066 1.100 10000.000 0.000 1.154
114 342.00 1200.02 322 1058 1.100 10000.000 0.000 1.154
115 345.00 1200.02 292 961 1.100 10000.000 0.000 1.154
116 348.00 1200.02 349 1005 1.100 10000.000 0.000 1.154
117 351.00 1200.02 345 988 1.100 10000.000 0.000 1.154
118 354.00 1200.02 337 1040 1.100 10000.000 0.000 1.154
119 357.00 1200.02 370 1012 1.100 10000.000 0.000 1.154
120 360.00 1200.02 330 946 1.100 10000.000 0.000 1.154
121 363.00 1200.02 316 1021 1.100 10000.000 0.000 1.154
122 366.00 1200.02 295 1049 1.100 10000.000 0.000 1.154
123 369.00 1200.02 341 999 1.100 10000.000 0.000 1.154
124 372.00 1200.02 332 1014 1.100 10000.000 0.000 1.154
125 375.00 1200.02 301 985 1.100 10000.000 0.000 1.154
126 378.00 1200.02 329 994 1.100 10000.000 0.000 1.154
127 381.00 1200.02 288 963 1.100 10000.000 0.000 1.154
128 384.00 1200.02 330 957 1.100 10000.000 0.000 1.154
129 387.00 1200.02 286 997 1.100 10000.000 0.000 1.154
130 390.00 1200.02 310 996 1.100 10000.000 0.000 1.154
131 393.00 1200.02 354 930 1.100 10000.000 0.000 1.154
132 396.00 1200.02 328 942 1.100 10000.000 0.000 1.154
133 399.00 1200.02 298 995 1.100 10000.000 0.000 1.154
134 402.00 1200.02 352 1008 1.100 10000.000 0.000 1.154
