# BinNR microsec tot-time (s)  O-Beam AUX Ampl(V) f(Hz) phase(deg) chi(pos)
0 0.00 1200.00 136 317 1.100 10000.000 0.000 -0.165
1 3.00 1200.00 295 534 1.100 10000.000 0.000 -0.165
2 6.00 1200.00 302 596 1.100 10000.000 0.000 -0.165
3 9.00 1200.00 244 536 1.100 10000.000 0.000 -0.165
4 12.00 1200.00 264 537 1.100 10000.000 0.000 -0.165
5 15.00 1200.00 246 509 1.100 10000.000 0.000 -0.165
6 18.00 1200.00 250 493 1.100 10000.000 0.000 -0.165
7 21.00 1200.00 249 482 1.100 10000.000 0.000 -0.165
8 24.00 1200.00 275 509 1.100 10000.000 0.000 -0.165
9 27.00 1200.00 240 457 1.100 10000.000 0.000 -0.165
10 30.00 1200.00 243 497 1.100 10000.000 0.000 -0.165
11 33.00 1200.00 252 475 1.100 10000.000 0.000 -0.165
12 36.00 1200.00 242 462 1.100 10000.000 0.000 -0.165
13 39.00 1200.00 252 509 1.100 10000.000 0.000 -0.165
14 42.00 1200.00 263 496 1.100 10000.000 0.000 -0.165
15 45.00 1200.00 243 450 1.100 10000.000 0.000 -0.165
16 48.00 1200.00 273 469 1.100 10000.000 0.000 -0.165
17 51.00 1200.00 238 448 1.100 10000.000 0.000 -0.165
18 54.00 1200.00 269 504 1.100 10000.000 0.000 -0.165
19 57.00 1200.00 241 490 1.100 10000.000 0.000 -0.165
20 60.00 1200.00 259 536 1.100 10000.000 0.000 -0.165
21 63.00 1200.00 270 482 1.100 10000.000 0.000 -0.165
22 66.00 1200.00 270 539 1.100 10000.000 0.000 -0.165
23 69.00 1200.00 272 559 1.100 10000.000 0.000 -0.165
24 72.00 1200.00 303 578 1.100 10000.000 0.000 -0.165
25 75.00 1200.00 301 576 1.100 10000.000 0.000 -0.165
26 78.00 1200.00 274 574 1.100 10000.000 0.000 -0.165
27 81.00 1200.00 275 592 1.100 10000.000 0.000 -0.165
28 84.00 1200.00 282 612 1.100 10000.000 0.000 -0.165
29 87.00 1200.00 313 603 1.100 10000.000 0.000 -0.165
30 90.00 1200.00 318 599 1.100 10000.000 0.000 -0.165
31 93.00 1200.00 281 583 1.100 10000.000 0.000 -0.165
32 96.00 1200.00 305 604 1.100 10000.000 0.000 -0.165
33 99.00 1200.00 295 559 1.100 10000.000 0.000 -0.165
34 102.00 1200.00 256 594 1.100 10000.000 0.000 -0.165
35 105.00 1200.00 310 608 1.100 10000.000 0.000 -0.165
36 108.00 1200.00 278 571 1.100 10000.000 0.000 -0.165
37 111.00 1200.00 282 533 1.100 10000.000 0.000 -0.165
38 114.00 1200.00 265 583 1.100 10000.000 0.000 -0.165
39 117.00 1200.00 247 518 1.100 10000.000 0.000 -0.165
40 120.00 1200.00 243 492 1.100 10000.000 0.000 -0.165
41 123.00 1200.00 261 502 1.100 10000.000 0.000 -0.165
42 126.00 1200.00 269 493 1.100 10000.000 0.000 -0.165
43 129.00 1200.00 248 448 1.100 10000.000 0.000 -0.165
44 132.00 1200.00 235 490 1.100 10000.000 0.000 -0.165
45 135.00 1200.00 256 449 1.100 10000.000 0.000 -0.165
46 138.00 1200.00 227 492 1.100 10000.000 0.000 -0.165
47 141.00 1200.00 243 449 1.100 10000.000 0.000 -0.165
48 144.00 1200.00 239 437 1.100 10000.000 0.000 -0.165
49 147.00 1200.00 252 503 1.100 10000.000 0.000 -0.165
50 150.00 1200.00 243 435 1.100 10000.000 0.000 -0.165
51 153.00 1200.00 239 467 1.100 10000.000 0.000 -0.165
52 156.00 1200.00 249 475 1.100 10000.000 0.000 -0.165
53 159.00 1200.00 265 491 1.100 10000.000 0.000 -0.165
54 162.00 1200.00 225 528 1.100 10000.000 0.000 -0.165
55 165.00 1200.00 246 546 1.100 10000.000 0.000 -0.165
56 168.00 1200.00 275 538 1.100 10000.000 0.000 -0.165
57 171.00 1200.00 273 560 1.100 10000.000 0.000 -0.165
58 174.00 1200.00 279 605 1.100 10000.000 0.000 -0.165
59 177.00 1200.00 295 597 1.100 10000.000 0.000 -0.165
60 180.00 1200.00 279 636 1.100 10000.000 0.000 -0.165
61 183.00 1200.00 274 635 1.100 10000.000 0.000 -0.165
62 186.00 1200.00 317 602 1.100 10000.000 0.000 -0.165
63 189.00 1200.00 251 614 1.100 10000.000 0.000 -0.165
64 192.00 1200.00 251 614 1.100 10000.000 0.000 -0.165
65 195.00 1200.00 268 614 1.100 10000.000 0.000 -0.165
66 198.00 1200.00 275 613 1.100 10000.000 0.000 -0.165
67 201.00 1200.00 289 641 1.100 10000.000 0.000 -0.165
68 204.00 1200.00 271 612 1.100 10000.000 0.000 -0.165
69 207.00 1200.00 248 613 1.100 10000.000 0.000 -0.165
70 210.00 1200.00 287 557 1.100 10000.000 0.000 -0.165
71 213.00 1200.00 244 545 1.100 10000.000 0.000 -0.165
72 216.00 1200.00 266 521 1.100 10000.000 0.000 -0.165
73 219.00 1200.00 255 551 1.100 10000.000 0.000 -0.165
74 222.00 1200.00 276 522 1.100 10000.000 0.000 -0.165
75 225.00 1200.00 217 457 1.100 10000.000 0.000 -0.165
76 228.00 1200.00 267 493 1.100 10000.000 0.000 -0.165
77 231.00 1200.00 266 468 1.100 10000.000 0.000 -0.165
78 234.00 1200.00 260 492 1.100 10000.000 0.000 -0.165
79 237.00 1200.00 258 463 1.100 10000.000 0.000 -0.165
80 240.00 1200.00 219 433 1.100 10000.000 0.000 -0.165
81 243.00 1200.00 210 425 1.100 10000.000 0.000 -0.165
82 246.00 1200.00 260 431 1.100 10000.000 0.000 -0.165
83 249.00 1200.00 235 477 1.100 10000.000 0.000 -0.165
84 252.00 1200.00 249 494 1.100 10000.000 0.000 -0.165
85 255.00 1200.00 270 454 1.100 10000.000 0.000 -0.165
86 258.00 1200.00 235 486 1.100 10000.000 0.000 -0.165
87 261.00 1200.00 252 499 1.100 10000.000 0.000 -0.165
88 264.00 1200.00 264 514 1.100 10000.000 0.000 -0.165
89 267.00 1200.00 285 545 1.100 10000.000 0.000 -0.165
90 270.00 1200.00 279 565 1.100 10000.000 0.000 -0.165
91 273.00 1200.00 256 583 1.100 10000.000 0.000 -0.165
92 276.00 1200.00 270 585 1.100 10000.000 0.000 -0.165
93 279.00 1200.00 271 619 1.100 10000.000 0.000 -0.165
94 282.00 1200.00 282 622 1.100 10000.000 0.000 -0.165
95 285.00 1200.00 277 607 1.100 10000.000 0.000 -0.165
96 288.00 1200.00 297 590 1.100 10000.000 0.000 -0.165
97 291.00 1200.00 291 566 1.100 10000.000 0.000 -0.165
98 294.00 1200.00 297 653 1.100 10000.000 0.000 -0.165
99 297.00 1200.00 289 626 1.100 10000.000 0.000 -0.165
100 300.00 1200.00 292 630 1.100 10000.000 0.000 -0.165
101 303.00 1200.00 293 590 1.100 10000.000 0.000 -0.165
102 306.00 1200.00 262 560 1.100 10000.000 0.000 -0.165
103 309.00 1200.00 274 533 1.100 10000.000 0.000 -0.165
104 312.00 1200.00 235 555 1.100 10000.000 0.000 -0.165
105 315.00 1200.00 261 528 1.100 10000.000 0.000 -0.165
106 318.00 1200.00 243 532 1.100 10000.000 0.000 -0.165
107 321.00 1200.00 241 489 1.100 10000.000 0.000 -0.165
108 324.00 1200.00 264 479 1.100 10000.000 0.000 -0.165
109 327.00 1200.00 252 473 1.100 10000.000 0.000 -0.165
110 330.00 1200.00 248 462 1.100 10000.000 0.000 -0.165
111 333.00 1200.00 240 444 1.100 10000.000 0.000 -0.165
112 336.00 1200.00 227 434 1.100 10000.000 0.000 -0.165
113 339.00 1200.00 262 420 1.100 10000.000 0.000 -0.165
114 342.00 1200.00 261 444 1.100 10000.000 0.000 -0.165
115 345.00 1200.00 236 442 1.100 10000.000 0.000 -0.165
116 348.00 1200.00 243 430 1.100 10000.000 0.000 -0.165
117 351.00 1200.00 242 474 1.100 10000.000 0.000 -0.165
118 354.00 1200.00 253 498 1.100 10000.000 0.000 -0.165
119 357.00 1200.00 256 521 1.100 10000.000 0.000 -0.165
120 360.00 1200.00 255 500 1.100 10000.000 0.000 -0.165
121 363.00 1200.00 268 507 1.100 10000.000 0.000 -0.165
122 366.00 1200.00 246 522 1.100 10000.000 0.000 -0.165
123 369.00 1200.00 288 541 1.100 10000.000 0.000 -0.165
124 372.00 1200.00 275 582 1.100 10000.000 0.000 -0.165
125 375.00 1200.00 277 588 1.100 10000.000 0.000 -0.165
126 378.00 1200.00 271 608 1.100 10000.000 0.000 -0.165
127 381.00 1200.00 278 550 1.100 10000.000 0.000 -0.165
128 384.00 1200.00 283 586 1.100 10000.000 0.000 -0.165
129 387.00 1200.00 320 611 1.100 10000.000 0.000 -0.165
130 390.00 1200.00 294 612 1.100 10000.000 0.000 -0.165
131 393.00 1200.00 268 623 1.100 10000.000 0.000 -0.165
132 396.00 1200.00 279 637 1.100 10000.000 0.000 -0.165
133 399.00 1200.00 254 598 1.100 10000.000 0.000 -0.165
134 402.00 1200.00 291 578 1.100 10000.000 0.000 -0.165
