# BinNR microsec tot-time (s)  O-Beam AUX Ampl(V) f(Hz) phase(deg) chi(pos)
0 0.00 1200.01 118 158 1.100 10000.000 0.000 0.000
1 3.00 1200.01 187 332 1.100 10000.000 0.000 0.000
2 6.00 1200.01 194 335 1.100 10000.000 0.000 0.000
3 9.00 1200.01 187 320 1.100 10000.000 0.000 0.000
4 12.00 1200.01 187 270 1.100 10000.000 0.000 0.000
5 15.00 1200.01 179 276 1.100 10000.000 0.000 0.000
6 18.00 1200.01 173 276 1.100 10000.000 0.000 0.000
7 21.00 1200.01 182 261 1.100 10000.000 0.000 0.000
8 24.00 1200.01 162 289 1.100 10000.000 0.000 0.000
9 27.00 1200.01 155 255 1.100 10000.000 0.000 0.000
10 30.00 1200.01 171 237 1.100 10000.000 0.000 0.000
11 33.00 1200.01 183 251 1.100 10000.000 0.000 0.000
12 36.00 1200.01 156 236 1.100 10000.000 0.000 0.000
13 39.00 1200.01 179 253 1.100 10000.000 0.000 0.000
14 42.00 1200.01 147 271 1.100 10000.000 0.000 0.000
15 45.00 1200.01 180 254 1.100 10000.000 0.000 0.000
16 48.00 1200.01 173 275 1.100 10000.000 0.000 0.000
17 51.00 1200.01 186 299 1.100 10000.000 0.000 0.000
18 54.00 1200.01 195 267 1.100 10000.000 0.000 0.000
19 57.00 1200.01 172 275 1.100 10000.000 0.000 0.000
20 60.00 1200.01 174 275 1.100 10000.000 0.000 0.000
21 63.00 1200.01 180 289 1.100 10000.000 0.000 0.000
22 66.00 1200.01 198 315 1.100 10000.000 0.000 0.000
23 69.00 1200.01 187 268 1.100 10000.000 0.000 0.000
24 72.00 1200.01 188 364 1.100 10000.000 0.000 0.000
25 75.00 1200.01 204 319 1.100 10000.000 0.000 0.000
26 78.00 1200.01 199 383 1.100 10000.000 0.000 0.000
27 81.00 1200.01 192 359 1.100 10000.000 0.000 0.000
28 84.00 1200.01 197 340 1.100 10000.000 0.000 0.000
29 87.00 1200.01 204 375 1.100 10000.000 0.000 0.000
30 90.00 1200.01 220 385 1.100 10000.000 0.000 0.000
31 93.00 1200.01 231 361 1.100 10000.000 0.000 0.000
32 96.00 1200.01 194 372 1.100 10000.000 0.000 0.000
33 99.00 1200.01 208 372 1.100 10000.000 0.000 0.000
34 102.00 1200.01 229 365 1.100 10000.000 0.000 0.000
35 105.00 1200.01 199 338 1.100 10000.000 0.000 0.000
36 108.00 1200.01 182 352 1.100 10000.000 0.000 0.000
37 111.00 1200.01 193 331 1.100 10000.000 0.000 0.000
38 114.00 1200.01 187 304 1.100 10000.000 0.000 0.000
39 117.00 1200.01 184 313 1.100 10000.000 0.000 0.000
40 120.00 1200.01 198 289 1.100 10000.000 0.000 0.000
41 123.00 1200.01 158 272 1.100 10000.000 0.000 0.000
42 126.00 1200.01 186 252 1.100 10000.000 0.000 0.000
43 129.00 1200.01 182 247 1.100 10000.000 0.000 0.000
44 132.00 1200.01 181 236 1.100 10000.000 0.000 0.000
45 135.00 1200.01 145 227 1.100 10000.000 0.000 0.000
46 138.00 1200.01 157 266 1.100 10000.000 0.000 0.000
47 141.00 1200.01 155 246 1.100 10000.000 0.000 0.000
48 144.00 1200.01 178 255 1.100 10000.000 0.000 0.000
49 147.00 1200.01 180 252 1.100 10000.000 0.000 0.000
50 150.00 1200.01 186 228 1.100 10000.000 0.000 0.000
51 153.00 1200.01 187 215 1.100 10000.000 0.000 0.000
52 156.00 1200.01 181 276 1.100 10000.000 0.000 0.000
53 159.00 1200.01 179 268 1.100 10000.000 0.000 0.000
54 162.00 1200.01 190 323 1.100 10000.000 0.000 0.000
55 165.00 1200.01 195 325 1.100 10000.000 0.000 0.000
56 168.00 1200.01 205 303 1.100 10000.000 0.000 0.000
57 171.00 1200.01 204 287 1.100 10000.000 0.000 0.000
58 174.00 1200.01 198 352 1.100 10000.000 0.000 0.000
59 177.00 1200.01 208 336 1.100 10000.000 0.000 0.000
60 180.00 1200.01 225 395 1.100 10000.000 0.000 0.000
61 183.00 1200.01 215 374 1.100 10000.000 0.000 0.000
62 186.00 1200.01 210 394 1.100 10000.000 0.000 0.000
63 189.00 1200.01 191 366 1.100 10000.000 0.000 0.000
64 192.00 1200.01 207 380 1.100 10000.000 0.000 0.000
65 195.00 1200.01 188 359 1.100 10000.000 0.000 0.000
66 198.00 1200.01 191 408 1.100 10000.000 0.000 0.000
67 201.00 1200.01 208 347 1.100 10000.000 0.000 0.000
68 204.00 1200.01 212 360 1.100 10000.000 0.000 0.000
69 207.00 1200.01 217 338 1.100 10000.000 0.000 0.000
70 210.00 1200.01 200 328 1.100 10000.000 0.000 0.000
71 213.00 1200.01 164 328 1.100 10000.000 0.000 0.000
72 216.00 1200.01 196 300 1.100 10000.000 0.000 0.000
73 219.00 1200.01 191 307 1.100 10000.000 0.000 0.000
74 222.00 1200.01 181 272 1.100 10000.000 0.000 0.000
75 225.00 1200.01 140 266 1.100 10000.000 0.000 0.000
76 228.00 1200.01 181 249 1.100 10000.000 0.000 0.000
77 231.00 1200.01 172 258 1.100 10000.000 0.000 0.000
78 234.00 1200.01 166 243 1.100 10000.000 0.000 0.000
79 237.00 1200.01 160 248 1.100 10000.000 0.000 0.000
80 240.00 1200.01 167 264 1.100 10000.000 0.000 0.000
81 243.00 1200.01 162 228 1.100 10000.000 0.000 0.000
82 246.00 1200.01 164 265 1.100 10000.000 0.000 0.000
83 249.00 1200.01 193 226 1.100 10000.000 0.000 0.000
84 252.00 1200.01 164 252 1.100 10000.000 0.000 0.000
85 255.00 1200.01 156 319 1.100 10000.000 0.000 0.000
86 258.00 1200.01 185 285 1.100 10000.000 0.000 0.000
87 261.00 1200.01 182 292 1.100 10000.000 0.000 0.000
88 264.00 1200.01 186 294 1.100 10000.000 0.000 0.000
89 267.00 1200.01 172 342 1.100 10000.000 0.000 0.000
90 270.00 1200.01 226 327 1.100 10000.000 0.000 0.000
91 273.00 1200.01 181 326 1.100 10000.000 0.000 0.000
92 276.00 1200.01 231 375 1.100 10000.000 0.000 0.000
93 279.00 1200.01 202 360 1.100 10000.000 0.000 0.000
94 282.00 1200.01 230 340 1.100 10000.000 0.000 0.000
95 285.00 1200.01 183 408 1.100 10000.000 0.000 0.000
96 288.00 1200.01 234 335 1.100 10000.000 0.000 0.000
97 291.00 1200.01 196 401 1.100 10000.000 0.000 0.000
98 294.00 1200.01 220 388 1.100 10000.000 0.000 0.000
99 297.00 1200.01 196 353 1.100 10000.000 0.000 0.000
100 300.00 1200.01 179 333 1.100 10000.000 0.000 0.000
101 303.00 1200.01 206 355 1.100 10000.000 0.000 0.000
102 306.00 1200.01 207 347 1.100 10000.000 0.000 0.000
103 309.00 1200.01 175 340 1.100 10000.000 0.000 0.000
104 312.00 1200.01 188 304 1.100 10000.000 0.000 0.000
105 315.00 1200.01 192 329 1.100 10000.000 0.000 0.000
106 318.00 1200.01 166 278 1.100 10000.000 0.000 0.000
107 321.00 1200.01 151 255 1.100 10000.000 0.000 0.000
108 324.00 1200.01 172 287 1.100 10000.000 0.000 0.000
109 327.00 1200.01 164 267 1.100 10000.000 0.000 0.000
110 330.00 1200.01 192 249 1.100 10000.000 0.000 0.000
111 333.00 1200.01 151 242 1.100 10000.000 0.000 0.000
112 336.00 1200.01 185 232 1.100 10000.000 0.000 0.000
113 339.00 1200.01 177 251 1.100 10000.000 0.000 0.000
114 342.00 1200.01 183 237 1.100 10000.000 0.000 0.000
115 345.00 1200.01 160 238 1.100 10000.000 0.000 0.000
116 348.00 1200.01 177 266 1.100 10000.000 0.000 0.000
117 351.00 1200.01 180 231 1.100 10000.000 0.000 0.000
118 354.00 1200.01 166 250 1.100 10000.000 0.000 0.000
119 357.00 1200.01 150 263 1.100 10000.000 0.000 0.000
120 360.00 1200.01 187 268 1.100 10000.000 0.000 0.000
121 363.00 1200.01 206 271 1.100 10000.000 0.000 0.000
122 366.00 1200.01 181 284 1.100 10000.000 0.000 0.000
123 369.00 1200.01 191 345 1.100 10000.000 0.000 0.000
124 372.00 1200.01 218 367 1.100 10000.000 0.000 0.000
125 375.00 1200.01 204 347 1.100 10000.000 0.000 0.000
126 378.00 1200.01 209 350 1.100 10000.000 0.000 0.000
127 381.00 1200.01 194 361 1.100 10000.000 0.000 0.000
128 384.00 1200.01 193 379 1.100 10000.000 0.000 0.000
129 387.00 1200.01 195 364 1.100 10000.000 0.000 0.000
130 390.00 1200.01 221 406 1.100 10000.000 0.000 0.000
131 393.00 1200.01 212 383 1.100 10000.000 0.000 0.000
132 396.00 1200.01 210 390 1.100 10000.000 0.000 0.000
133 399.00 1200.01 202 343 1.100 10000.000 0.000 0.000
134 402.00 1200.01 206 348 1.100 10000.000 0.000 0.000
