# BinNR microsec tot-time (s)  O-Beam AUX Ampl(V) f(Hz) phase(deg) chi(pos)
0 0.00 1200.02 24 66 1.100 10000.000 0.000 0.505
1 3.00 1200.02 82 183 1.100 10000.000 0.000 0.505
2 6.00 1200.02 71 164 1.100 10000.000 0.000 0.505
3 9.00 1200.02 80 190 1.100 10000.000 0.000 0.505
4 12.00 1200.02 88 212 1.100 10000.000 0.000 0.505
5 15.00 1200.02 79 175 1.100 10000.000 0.000 0.505
6 18.00 1200.02 88 207 1.100 10000.000 0.000 0.505
7 21.00 1200.02 80 237 1.100 10000.000 0.000 0.505
8 24.00 1200.02 74 223 1.100 10000.000 0.000 0.505
9 27.00 1200.02 94 233 1.100 10000.000 0.000 0.505
10 30.00 1200.02 91 214 1.100 10000.000 0.000 0.505
11 33.00 1200.02 89 255 1.100 10000.000 0.000 0.505
12 36.00 1200.02 81 253 1.100 10000.000 0.000 0.505
13 39.00 1200.02 89 226 1.100 10000.000 0.000 0.505
14 42.00 1200.02 84 221 1.100 10000.000 0.000 0.505
15 45.00 1200.02 101 223 1.100 10000.000 0.000 0.505
16 48.00 1200.02 87 203 1.100 10000.000 0.000 0.505
17 51.00 1200.02 90 233 1.100 10000.000 0.000 0.505
18 54.00 1200.02 81 232 1.100 10000.000 0.000 0.505
19 57.00 1200.02 77 221 1.100 10000.000 0.000 0.505
20 60.00 1200.02 73 184 1.100 10000.000 0.000 0.505
21 63.00 1200.02 85 188 1.100 10000.000 0.000 0.505
22 66.00 1200.02 81 174 1.100 10000.000 0.000 0.505
23 69.00 1200.02 76 196 1.100 10000.000 0.000 0.505
24 72.00 1200.02 69 178 1.100 10000.000 0.000 0.505
25 75.00 1200.02 76 165 1.100 10000.000 0.000 0.505
26 78.00 1200.02 89 170 1.100 10000.000 0.000 0.505
27 81.00 1200.02 76 144 1.100 10000.000 0.000 0.505
28 84.00 1200.02 80 149 1.100 10000.000 0.000 0.505
29 87.00 1200.02 58 131 1.100 10000.000 0.000 0.505
30 90.00 1200.02 61 129 1.100 10000.000 0.000 0.505
31 93.00 1200.02 92 154 1.100 10000.000 0.000 0.505
32 96.00 1200.02 91 157 1.100 10000.000 0.000 0.505
33 99.00 1200.02 85 165 1.100 10000.000 0.000 0.505
34 102.00 1200.02 71 146 1.100 10000.000 0.000 0.505
35 105.00 1200.02 85 157 1.100 10000.000 0.000 0.505
36 108.00 1200.02 68 191 1.100 10000.000 0.000 0.505
37 111.00 1200.02 70 183 1.100 10000.000 0.000 0.505
38 114.00 1200.02 74 157 1.100 10000.000 0.000 0.505
39 117.00 1200.02 74 188 1.100 10000.000 0.000 0.505
40 120.00 1200.02 91 203 1.100 10000.000 0.000 0.505
41 123.00 1200.02 74 174 1.100 10000.000 0.000 0.505
42 126.00 1200.02 90 218 1.100 10000.000 0.000 0.505
43 129.00 1200.02 96 207 1.100 10000.000 0.000 0.505
44 132.00 1200.02 90 264 1.100 10000.000 0.000 0.505
45 135.00 1200.02 89 258 1.100 10000.000 0.000 0.505
46 138.00 1200.02 89 245 1.100 10000.000 0.000 0.505
47 141.00 1200.02 80 231 1.100 10000.000 0.000 0.505
48 144.00 1200.02 80 242 1.100 10000.000 0.000 0.505
49 147.00 1200.02 94 240 1.100 10000.000 0.000 0.505
50 150.00 1200.02 80 251 1.100 10000.000 0.000 0.505
51 153.00 1200.02 90 225 1.100 10000.000 0.000 0.505
52 156.00 1200.02 75 225 1.100 10000.000 0.000 0.505
53 159.00 1200.02 93 165 1.100 10000.000 0.000 0.505
54 162.00 1200.02 74 183 1.100 10000.000 0.000 0.505
55 165.00 1200.02 73 188 1.100 10000.000 0.000 0.505
56 168.00 1200.02 86 197 1.100 10000.000 0.000 0.505
57 171.00 1200.02 75 164 1.100 10000.000 0.000 0.505
58 174.00 1200.02 80 162 1.100 10000.000 0.000 0.505
59 177.00 1200.02 75 174 1.100 10000.000 0.000 0.505
60 180.00 1200.02 68 164 1.100 10000.000 0.000 0.505
61 183.00 1200.02 75 149 1.100 10000.000 0.000 0.505
62 186.00 1200.02 78 136 1.100 10000.000 0.000 0.505
63 189.00 1200.02 81 147 1.100 10000.000 0.000 0.505
64 192.00 1200.02 74 151 1.100 10000.000 0.000 0.505
65 195.00 1200.02 72 156 1.100 10000.000 0.000 0.505
66 198.00 1200.02 70 157 1.100 10000.000 0.000 0.505
67 201.00 1200.02 79 147 1.100 10000.000 0.000 0.505
68 204.00 1200.02 70 145 1.100 10000.000 0.000 0.505
69 207.00 1200.02 68 159 1.100 10000.000 0.000 0.505
70 210.00 1200.02 85 186 1.100 10000.000 0.000 0.505
71 213.00 1200.02 69 157 1.100 10000.000 0.000 0.505
72 216.00 1200.02 75 210 1.100 10000.000 0.000 0.505
73 219.00 1200.02 82 213 1.100 10000.000 0.000 0.505
74 222.00 1200.02 73 209 1.100 10000.000 0.000 0.505
75 225.00 1200.02 82 200 1.100 10000.000 0.000 0.505
76 228.00 1200.02 90 223 1.100 10000.000 0.000 0.505
77 231.00 1200.02 75 245 1.100 10000.000 0.000 0.505
78 234.00 1200.02 98 230 1.100 10000.000 0.000 0.505
79 237.00 1200.02 100 279 1.100 10000.000 0.000 0.505
80 240.00 1200.02 91 241 1.100 10000.000 0.000 0.505
81 243.00 1200.02 73 245 1.100 10000.000 0.000 0.505
82 246.00 1200.02 76 207 1.100 10000.000 0.000 0.505
83 249.00 1200.02 89 235 1.100 10000.000 0.000 0.505
84 252.00 1200.02 76 226 1.100 10000.000 0.000 0.505
85 255.00 1200.02 94 209 1.100 10000.000 0.000 0.505
86 258.00 1200.02 100 214 1.100 10000.000 0.000 0.505
87 261.00 1200.02 88 195 1.100 10000.000 0.000 0.505
88 264.00 1200.02 70 203 1.100 10000.000 0.000 0.505
89 267.00 1200.02 82 160 1.100 10000.000 0.000 0.505
90 270.00 1200.02 79 189 1.100 10000.000 0.000 0.505
91 273.00 1200.02 81 153 1.100 10000.000 0.000 0.505
92 276.00 1200.02 66 160 1.100 10000.000 0.000 0.505
93 279.00 1200.02 62 173 1.100 10000.000 0.000 0.505
94 282.00 1200.02 57 164 1.100 10000.000 0.000 0.505
95 285.00 1200.02 79 138 1.100 10000.000 0.000 0.505
96 288.00 1200.02 65 164 1.100 10000.000 0.000 0.505
97 291.00 1200.02 76 160 1.100 10000.000 0.000 0.505
98 294.00 1200.02 71 180 1.100 10000.000 0.000 0.505
99 297.00 1200.02 73 146 1.100 10000.000 0.000 0.505
100 300.00 1200.02 74 142 1.100 10000.000 0.000 0.505
101 303.00 1200.02 64 151 1.100 10000.000 0.000 0.505
102 306.00 1200.02 64 156 1.100 10000.000 0.000 0.505
103 309.00 1200.02 74 155 1.100 10000.000 0.000 0.505
104 312.00 1200.02 79 184 1.100 10000.000 0.000 0.505
105 315.00 1200.02 83 193 1.100 10000.000 0.000 0.505
106 318.00 1200.02 89 200 1.100 10000.000 0.000 0.505
107 321.00 1200.02 77 216 1.100 10000.000 0.000 0.505
108 324.00 1200.02 93 220 1.100 10000.000 0.000 0.505
109 327.00 1200.02 80 238 1.100 10000.000 0.000 0.505
110 330.00 1200.02 96 228 1.100 10000.000 0.000 0.505
111 333.00 1200.02 78 221 1.100 10000.000 0.000 0.505
112 336.00 1200.02 93 264 1.100 10000.000 0.000 0.505
113 339.00 1200.02 74 258 1.100 10000.000 0.000 0.505
114 342.00 1200.02 110 257 1.100 10000.000 0.000 0.505
115 345.00 1200.02 62 255 1.100 10000.000 0.000 0.505
116 348.00 1200.02 91 255 1.100 10000.000 0.000 0.505
117 351.00 1200.02 86 213 1.100 10000.000 0.000 0.505
118 354.00 1200.02 78 251 1.100 10000.000 0.000 0.505
119 357.00 1200.02 72 238 1.100 10000.000 0.000 0.505
120 360.00 1200.02 73 225 1.100 10000.000 0.000 0.505
121 363.00 1200.02 64 193 1.100 10000.000 0.000 0.505
122 366.00 1200.02 85 177 1.100 10000.000 0.000 0.505
123 369.00 1200.02 67 156 1.100 10000.000 0.000 0.505
124 372.00 1200.02 83 175 1.100 10000.000 0.000 0.505
125 375.00 1200.02 93 159 1.100 10000.000 0.000 0.505
126 378.00 1200.02 72 149 1.100 10000.000 0.000 0.505
127 381.00 1200.02 76 145 1.100 10000.000 0.000 0.505
128 384.00 1200.02 73 156 1.100 10000.000 0.000 0.505
129 387.00 1200.02 85 127 1.100 10000.000 0.000 0.505
130 390.00 1200.02 78 146 1.100 10000.000 0.000 0.505
131 393.00 1200.02 63 152 1.100 10000.000 0.000 0.505
132 396.00 1200.02 69 161 1.100 10000.000 0.000 0.505
133 399.00 1200.02 67 124 1.100 10000.000 0.000 0.505
134 402.00 1200.02 89 145 1.100 10000.000 0.000 0.505
