# BinNR microsec tot-time (s)  O-Beam AUX Ampl(V) f(Hz) phase(deg) chi(pos)
0 0.00 1200.00 88 309 1.100 10000.000 0.000 -1.110
1 3.00 1200.00 182 625 1.100 10000.000 0.000 -1.110
2 6.00 1200.00 222 638 1.100 10000.000 0.000 -1.110
3 9.00 1200.00 190 611 1.100 10000.000 0.000 -1.110
4 12.00 1200.00 204 656 1.100 10000.000 0.000 -1.110
5 15.00 1200.00 200 646 1.100 10000.000 0.000 -1.110
6 18.00 1200.00 186 696 1.100 10000.000 0.000 -1.110
7 21.00 1200.00 213 597 1.100 10000.000 0.000 -1.110
8 24.00 1200.00 209 639 1.100 10000.000 0.000 -1.110
9 27.00 1200.00 220 627 1.100 10000.000 0.000 -1.110
10 30.00 1200.00 209 698 1.100 10000.000 0.000 -1.110
11 33.00 1200.00 203 663 1.100 10000.000 0.000 -1.110
12 36.00 1200.00 193 622 1.100 10000.000 0.000 -1.110
13 39.00 1200.00 192 608 1.100 10000.000 0.000 -1.110
14 42.00 1200.00 195 612 1.100 10000.000 0.000 -1.110
15 45.00 1200.00 197 645 1.100 10000.000 0.000 -1.110
16 48.00 1200.00 186 628 1.100 10000.000 0.000 -1.110
17 51.00 1200.00 218 609 1.100 10000.000 0.000 -1.110
18 54.00 1200.00 202 623 1.100 10000.000 0.000 -1.110
19 57.00 1200.00 181 568 1.100 10000.000 0.000 -1.110
20 60.00 1200.00 191 650 1.100 10000.000 0.000 -1.110
21 63.00 1200.00 172 620 1.100 10000.000 0.000 -1.110
22 66.00 1200.00 179 690 1.100 10000.000 0.000 -1.110
23 69.00 1200.00 211 642 1.100 10000.000 0.000 -1.110
24 72.00 1200.00 201 623 1.100 10000.000 0.000 -1.110
25 75.00 1200.00 198 566 1.100 10000.000 0.000 -1.110
26 78.00 1200.00 199 627 1.100 10000.000 0.000 -1.110
27 81.00 1200.00 189 610 1.100 10000.000 0.000 -1.110
28 84.00 1200.00 187 642 1.100 10000.000 0.000 -1.110
29 87.00 1200.00 194 635 1.100 10000.000 0.000 -1.110
30 90.00 1200.00 192 616 1.100 10000.000 0.000 -1.110
31 93.00 1200.00 200 637 1.100 10000.000 0.000 -1.110
32 96.00 1200.00 188 640 1.100 10000.000 0.000 -1.110
33 99.00 1200.00 181 612 1.100 10000.000 0.000 -1.110
34 102.00 1200.00 204 642 1.100 10000.000 0.000 -1.110
35 105.00 1200.00 196 597 1.100 10000.000 0.000 -1.110
36 108.00 1200.00 207 653 1.100 10000.000 0.000 -1.110
37 111.00 1200.00 206 623 1.100 10000.000 0.000 -1.110
38 114.00 1200.00 209 625 1.100 10000.000 0.000 -1.110
39 117.00 1200.00 201 605 1.100 10000.000 0.000 -1.110
40 120.00 1200.00 186 599 1.100 10000.000 0.000 -1.110
41 123.00 1200.00 209 652 1.100 10000.000 0.000 -1.110
42 126.00 1200.00 208 701 1.100 10000.000 0.000 -1.110
43 129.00 1200.00 197 650 1.100 10000.000 0.000 -1.110
44 132.00 1200.00 209 676 1.100 10000.000 0.000 -1.110
45 135.00 1200.00 206 623 1.100 10000.000 0.000 -1.110
46 138.00 1200.00 187 647 1.100 10000.000 0.000 -1.110
47 141.00 1200.00 192 633 1.100 10000.000 0.000 -1.110
48 144.00 1200.00 191 698 1.100 10000.000 0.000 -1.110
49 147.00 1200.00 206 689 1.100 10000.000 0.000 -1.110
50 150.00 1200.00 195 636 1.100 10000.000 0.000 -1.110
51 153.00 1200.00 211 630 1.100 10000.000 0.000 -1.110
52 156.00 1200.00 225 622 1.100 10000.000 0.000 -1.110
53 159.00 1200.00 195 629 1.100 10000.000 0.000 -1.110
54 162.00 1200.00 209 641 1.100 10000.000 0.000 -1.110
55 165.00 1200.00 193 625 1.100 10000.000 0.000 -1.110
56 168.00 1200.00 189 642 1.100 10000.000 0.000 -1.110
57 171.00 1200.00 192 608 1.100 10000.000 0.000 -1.110
58 174.00 1200.00 205 622 1.100 10000.000 0.000 -1.110
59 177.00 1200.00 181 616 1.100 10000.000 0.000 -1.110
60 180.00 1200.00 205 632 1.100 10000.000 0.000 -1.110
61 183.00 1200.00 214 565 1.100 10000.000 0.000 -1.110
62 186.00 1200.00 179 618 1.100 10000.000 0.000 -1.110
63 189.00 1200.00 171 642 1.100 10000.000 0.000 -1.110
64 192.00 1200.00 188 596 1.100 10000.000 0.000 -1.110
65 195.00 1200.00 173 572 1.100 10000.000 0.000 -1.110
66 198.00 1200.00 191 645 1.100 10000.000 0.000 -1.110
67 201.00 1200.00 191 660 1.100 10000.000 0.000 -1.110
68 204.00 1200.00 188 645 1.100 10000.000 0.000 -1.110
69 207.00 1200.00 191 585 1.100 10000.000 0.000 -1.110
70 210.00 1200.00 204 637 1.100 10000.000 0.000 -1.110
71 213.00 1200.00 204 636 1.100 10000.000 0.000 -1.110
72 216.00 1200.00 212 654 1.100 10000.000 0.000 -1.110
73 219.00 1200.00 209 661 1.100 10000.000 0.000 -1.110
74 222.00 1200.00 209 660 1.100 10000.000 0.000 -1.110
75 225.00 1200.00 213 661 1.100 10000.000 0.000 -1.110
76 228.00 1200.00 216 649 1.100 10000.000 0.000 -1.110
77 231.00 1200.00 211 678 1.100 10000.000 0.000 -1.110
78 234.00 1200.00 212 620 1.100 10000.000 0.000 -1.110
79 237.00 1200.00 220 654 1.100 10000.000 0.000 -1.110
80 240.00 1200.00 187 648 1.100 10000.000 0.000 -1.110
81 243.00 1200.00 218 644 1.100 10000.000 0.000 -1.110
82 246.00 1200.00 205 630 1.100 10000.000 0.000 -1.110
83 249.00 1200.00 216 673 1.100 10000.000 0.000 -1.110
84 252.00 1200.00 195 670 1.100 10000.000 0.000 -1.110
85 255.00 1200.00 231 664 1.100 10000.000 0.000 -1.110
86 258.00 1200.00 214 682 1.100 10000.000 0.000 -1.110
87 261.00 1200.00 204 655 1.100 10000.000 0.000 -1.110
88 264.00 1200.00 194 603 1.100 10000.000 0.000 -1.110
89 267.00 1200.00 189 647 1.100 10000.000 0.000 -1.110
90 270.00 1200.00 212 581 1.100 10000.000 0.000 -1.110
91 273.00 1200.00 193 617 1.100 10000.000 0.000 -1.110
92 276.00 1200.00 199 611 1.100 10000.000 0.000 -1.110
93 279.00 1200.00 184 635 1.100 10000.000 0.000 -1.110
94 282.00 1200.00 222 651 1.100 10000.000 0.000 -1.110
95 285.00 1200.00 207 598 1.100 10000.000 0.000 -1.110
96 288.00 1200.00 195 620 1.100 10000.000 0.000 -1.110
97 291.00 1200.00 195 599 1.100 10000.000 0.000 -1.110
98 294.00 1200.00 194 620 1.100 10000.000 0.000 -1.110
99 297.00 1200.00 186 582 1.100 10000.000 0.000 -1.110
100 300.00 1200.00 171 655 1.100 10000.000 0.000 -1.110
101 303.00 1200.00 161 516 1.100 10000.000 0.000 -1.110
