# BinNR microsec tot-time (s)  O-Beam H-beam AUX Ampl(V) f(Hz) phase(deg) chi(pos)
0 0.00 1200.00 201 833 3 0.000 5.373 2000.000 0.923
1 25.00 1200.00 196 694 1 0.000 5.373 2000.000 0.923
2 50.00 1200.00 153 613 2 0.000 5.373 2000.000 0.923
3 75.00 1200.00 162 543 1 0.000 5.373 2000.000 0.923
4 100.00 1200.00 202 565 1 0.000 5.373 2000.000 0.923
5 125.00 1200.00 255 650 2 0.000 5.373 2000.000 0.923
6 150.00 1200.00 361 755 3 0.000 5.373 2000.000 0.923
7 175.00 1200.00 423 757 2 0.000 5.373 2000.000 0.923
8 200.00 1200.00 461 763 2 0.000 5.373 2000.000 0.923
9 225.00 1200.00 415 718 4 0.000 5.373 2000.000 0.923
10 250.00 1200.00 356 674 2 0.000 5.373 2000.000 0.923
11 275.00 1200.00 271 639 1 0.000 5.373 2000.000 0.923
12 300.00 1200.00 213 585 1 0.000 5.373 2000.000 0.923
13 325.00 1200.00 258 634 4 0.000 5.373 2000.000 0.923
14 350.00 1200.00 311 731 4 0.000 5.373 2000.000 0.923
15 375.00 1200.00 397 789 1 0.000 5.373 2000.000 0.923
16 400.00 1200.00 460 816 7 0.000 5.373 2000.000 0.923
17 425.00 1200.00 462 907 2 0.000 5.373 2000.000 0.923
18 450.00 1200.00 396 870 2 0.000 5.373 2000.000 0.923
19 475.00 1200.00 271 875 2 0.000 5.373 2000.000 0.923
20 500.00 1200.00 206 799 4 0.000 5.373 2000.000 0.923
21 525.00 1200.00 223 800 4 0.000 5.373 2000.000 0.923
22 550.00 1200.00 178 632 1 0.000 5.373 2000.000 0.923
23 575.00 1200.00 164 597 2 0.000 5.373 2000.000 0.923
24 600.00 1200.00 198 641 3 0.000 5.373 2000.000 0.923
25 625.00 1200.00 255 653 2 0.000 5.373 2000.000 0.923
26 650.00 1200.00 358 676 2 0.000 5.373 2000.000 0.923
27 675.00 1200.00 434 808 2 0.000 5.373 2000.000 0.923
28 700.00 1200.00 460 769 2 0.000 5.373 2000.000 0.923
29 725.00 1200.00 384 781 1 0.000 5.373 2000.000 0.923
30 750.00 1200.00 332 693 3 0.000 5.373 2000.000 0.923
31 775.00 1200.00 301 551 3 0.000 5.373 2000.000 0.923
32 800.00 1200.00 271 576 2 0.000 5.373 2000.000 0.923
33 825.00 1200.00 263 612 3 0.000 5.373 2000.000 0.923
34 850.00 1200.00 304 733 4 0.000 5.373 2000.000 0.923
35 875.00 1200.00 396 795 2 0.000 5.373 2000.000 0.923
36 900.00 1200.00 434 829 2 0.000 5.373 2000.000 0.923
37 925.00 1200.00 442 874 2 0.000 5.373 2000.000 0.923
38 950.00 1200.00 354 902 1 0.000 5.373 2000.000 0.923
39 975.00 1200.00 288 820 3 0.000 5.373 2000.000 0.923
