# BinNR microsec tot-time (s)  O-Beam AUX Ampl_1(V) f_1(Hz) phase_1(deg) Ampl_2(V) f_2(Hz) phase_2(deg) chi(pos)
0 0.00 1500.00 68 56 0.740 10000.000 0.000 0.610 15000.000 0.000 0.165
1 3.00 1500.00 134 145 0.740 10000.000 0.000 0.610 15000.000 0.000 0.165
2 6.00 1500.00 121 127 0.740 10000.000 0.000 0.610 15000.000 0.000 0.165
3 9.00 1500.00 106 126 0.740 10000.000 0.000 0.610 15000.000 0.000 0.165
4 12.00 1500.00 140 114 0.740 10000.000 0.000 0.610 15000.000 0.000 0.165
5 15.00 1500.00 112 138 0.740 10000.000 0.000 0.610 15000.000 0.000 0.165
6 18.00 1500.00 162 123 0.740 10000.000 0.000 0.610 15000.000 0.000 0.165
7 21.00 1500.00 147 159 0.740 10000.000 0.000 0.610 15000.000 0.000 0.165
8 24.00 1500.00 145 176 0.740 10000.000 0.000 0.610 15000.000 0.000 0.165
9 27.00 1500.00 144 163 0.740 10000.000 0.000 0.610 15000.000 0.000 0.165
10 30.00 1500.00 186 230 0.740 10000.000 0.000 0.610 15000.000 0.000 0.165
11 33.00 1500.00 187 176 0.740 10000.000 0.000 0.610 15000.000 0.000 0.165
12 36.00 1500.00 218 223 0.740 10000.000 0.000 0.610 15000.000 0.000 0.165
13 39.00 1500.00 202 174 0.740 10000.000 0.000 0.610 15000.000 0.000 0.165
14 42.00 1500.00 217 169 0.740 10000.000 0.000 0.610 15000.000 0.000 0.165
15 45.00 1500.00 236 154 0.740 10000.000 0.000 0.610 15000.000 0.000 0.165
16 48.00 1500.00 225 138 0.740 10000.000 0.000 0.610 15000.000 0.000 0.165
17 51.00 1500.00 215 136 0.740 10000.000 0.000 0.610 15000.000 0.000 0.165
18 54.00 1500.00 225 124 0.740 10000.000 0.000 0.610 15000.000 0.000 0.165
19 57.00 1500.00 188 134 0.740 10000.000 0.000 0.610 15000.000 0.000 0.165
20 60.00 1500.00 192 139 0.740 10000.000 0.000 0.610 15000.000 0.000 0.165
21 63.00 1500.00 159 155 0.740 10000.000 0.000 0.610 15000.000 0.000 0.165
22 66.00 1500.00 150 167 0.740 10000.000 0.000 0.610 15000.000 0.000 0.165
23 69.00 1500.00 147 207 0.740 10000.000 0.000 0.610 15000.000 0.000 0.165
24 72.00 1500.00 129 226 0.740 10000.000 0.000 0.610 15000.000 0.000 0.165
25 75.00 1500.00 117 266 0.740 10000.000 0.000 0.610 15000.000 0.000 0.165
26 78.00 1500.00 96 313 0.740 10000.000 0.000 0.610 15000.000 0.000 0.165
27 81.00 1500.00 101 336 0.740 10000.000 0.000 0.610 15000.000 0.000 0.165
28 84.00 1500.00 92 327 0.740 10000.000 0.000 0.610 15000.000 0.000 0.165
29 87.00 1500.00 115 367 0.740 10000.000 0.000 0.610 15000.000 0.000 0.165
30 90.00 1500.00 100 360 0.740 10000.000 0.000 0.610 15000.000 0.000 0.165
31 93.00 1500.00 109 333 0.740 10000.000 0.000 0.610 15000.000 0.000 0.165
32 96.00 1500.00 106 312 0.740 10000.000 0.000 0.610 15000.000 0.000 0.165
33 99.00 1500.00 124 269 0.740 10000.000 0.000 0.610 15000.000 0.000 0.165
34 102.00 1500.00 131 261 0.740 10000.000 0.000 0.610 15000.000 0.000 0.165
35 105.00 1500.00 163 178 0.740 10000.000 0.000 0.610 15000.000 0.000 0.165
36 108.00 1500.00 167 218 0.740 10000.000 0.000 0.610 15000.000 0.000 0.165
37 111.00 1500.00 175 182 0.740 10000.000 0.000 0.610 15000.000 0.000 0.165
38 114.00 1500.00 189 154 0.740 10000.000 0.000 0.610 15000.000 0.000 0.165
39 117.00 1500.00 198 135 0.740 10000.000 0.000 0.610 15000.000 0.000 0.165
40 120.00 1500.00 220 162 0.740 10000.000 0.000 0.610 15000.000 0.000 0.165
41 123.00 1500.00 206 145 0.740 10000.000 0.000 0.610 15000.000 0.000 0.165
42 126.00 1500.00 242 138 0.740 10000.000 0.000 0.610 15000.000 0.000 0.165
43 129.00 1500.00 206 133 0.740 10000.000 0.000 0.610 15000.000 0.000 0.165
44 132.00 1500.00 209 176 0.740 10000.000 0.000 0.610 15000.000 0.000 0.165
45 135.00 1500.00 195 151 0.740 10000.000 0.000 0.610 15000.000 0.000 0.165
46 138.00 1500.00 197 167 0.740 10000.000 0.000 0.610 15000.000 0.000 0.165
47 141.00 1500.00 176 176 0.740 10000.000 0.000 0.610 15000.000 0.000 0.165
48 144.00 1500.00 162 178 0.740 10000.000 0.000 0.610 15000.000 0.000 0.165
49 147.00 1500.00 149 193 0.740 10000.000 0.000 0.610 15000.000 0.000 0.165
50 150.00 1500.00 145 187 0.740 10000.000 0.000 0.610 15000.000 0.000 0.165
51 153.00 1500.00 134 179 0.740 10000.000 0.000 0.610 15000.000 0.000 0.165
52 156.00 1500.00 135 182 0.740 10000.000 0.000 0.610 15000.000 0.000 0.165
53 159.00 1500.00 147 171 0.740 10000.000 0.000 0.610 15000.000 0.000 0.165
54 162.00 1500.00 132 175 0.740 10000.000 0.000 0.610 15000.000 0.000 0.165
55 165.00 1500.00 150 151 0.740 10000.000 0.000 0.610 15000.000 0.000 0.165
56 168.00 1500.00 140 134 0.740 10000.000 0.000 0.610 15000.000 0.000 0.165
57 171.00 1500.00 124 153 0.740 10000.000 0.000 0.610 15000.000 0.000 0.165
58 174.00 1500.00 120 119 0.740 10000.000 0.000 0.610 15000.000 0.000 0.165
59 177.00 1500.00 140 124 0.740 10000.000 0.000 0.610 15000.000 0.000 0.165
60 180.00 1500.00 153 158 0.740 10000.000 0.000 0.610 15000.000 0.000 0.165
61 183.00 1500.00 166 171 0.740 10000.000 0.000 0.610 15000.000 0.000 0.165
62 186.00 1500.00 154 194 0.740 10000.000 0.000 0.610 15000.000 0.000 0.165
63 189.00 1500.00 138 216 0.740 10000.000 0.000 0.610 15000.000 0.000 0.165
64 192.00 1500.00 121 261 0.740 10000.000 0.000 0.610 15000.000 0.000 0.165
65 195.00 1500.00 120 293 0.740 10000.000 0.000 0.610 15000.000 0.000 0.165
66 198.00 1500.00 142 313 0.740 10000.000 0.000 0.610 15000.000 0.000 0.165
67 201.00 1500.00 133 359 0.740 10000.000 0.000 0.610 15000.000 0.000 0.165
68 204.00 1500.00 124 384 0.740 10000.000 0.000 0.610 15000.000 0.000 0.165
69 207.00 1500.00 115 393 0.740 10000.000 0.000 0.610 15000.000 0.000 0.165
70 210.00 1500.00 134 369 0.740 10000.000 0.000 0.610 15000.000 0.000 0.165
71 213.00 1500.00 140 390 0.740 10000.000 0.000 0.610 15000.000 0.000 0.165
72 216.00 1500.00 136 353 0.740 10000.000 0.000 0.610 15000.000 0.000 0.165
73 219.00 1500.00 136 327 0.740 10000.000 0.000 0.610 15000.000 0.000 0.165
74 222.00 1500.00 136 269 0.740 10000.000 0.000 0.610 15000.000 0.000 0.165
75 225.00 1500.00 168 204 0.740 10000.000 0.000 0.610 15000.000 0.000 0.165
76 228.00 1500.00 171 186 0.740 10000.000 0.000 0.610 15000.000 0.000 0.165
77 231.00 1500.00 192 138 0.740 10000.000 0.000 0.610 15000.000 0.000 0.165
78 234.00 1500.00 182 139 0.740 10000.000 0.000 0.610 15000.000 0.000 0.165
79 237.00 1500.00 182 141 0.740 10000.000 0.000 0.610 15000.000 0.000 0.165
80 240.00 1500.00 206 141 0.740 10000.000 0.000 0.610 15000.000 0.000 0.165
81 243.00 1500.00 215 147 0.740 10000.000 0.000 0.610 15000.000 0.000 0.165
82 246.00 1500.00 234 151 0.740 10000.000 0.000 0.610 15000.000 0.000 0.165
83 249.00 1500.00 208 135 0.740 10000.000 0.000 0.610 15000.000 0.000 0.165
84 252.00 1500.00 227 135 0.740 10000.000 0.000 0.610 15000.000 0.000 0.165
85 255.00 1500.00 221 124 0.740 10000.000 0.000 0.610 15000.000 0.000 0.165
86 258.00 1500.00 185 129 0.740 10000.000 0.000 0.610 15000.000 0.000 0.165
87 261.00 1500.00 186 140 0.740 10000.000 0.000 0.610 15000.000 0.000 0.165
88 264.00 1500.00 175 155 0.740 10000.000 0.000 0.610 15000.000 0.000 0.165
89 267.00 1500.00 154 216 0.740 10000.000 0.000 0.610 15000.000 0.000 0.165
90 270.00 1500.00 130 228 0.740 10000.000 0.000 0.610 15000.000 0.000 0.165
91 273.00 1500.00 124 253 0.740 10000.000 0.000 0.610 15000.000 0.000 0.165
92 276.00 1500.00 114 344 0.740 10000.000 0.000 0.610 15000.000 0.000 0.165
93 279.00 1500.00 127 365 0.740 10000.000 0.000 0.610 15000.000 0.000 0.165
94 282.00 1500.00 111 357 0.740 10000.000 0.000 0.610 15000.000 0.000 0.165
95 285.00 1500.00 123 432 0.740 10000.000 0.000 0.610 15000.000 0.000 0.165
96 288.00 1500.00 113 361 0.740 10000.000 0.000 0.610 15000.000 0.000 0.165
97 291.00 1500.00 122 404 0.740 10000.000 0.000 0.610 15000.000 0.000 0.165
98 294.00 1500.00 132 339 0.740 10000.000 0.000 0.610 15000.000 0.000 0.165
99 297.00 1500.00 140 305 0.740 10000.000 0.000 0.610 15000.000 0.000 0.165
100 300.00 1500.00 152 248 0.740 10000.000 0.000 0.610 15000.000 0.000 0.165
101 303.00 1500.00 167 245 0.740 10000.000 0.000 0.610 15000.000 0.000 0.165
102 306.00 1500.00 144 224 0.740 10000.000 0.000 0.610 15000.000 0.000 0.165
103 309.00 1500.00 178 185 0.740 10000.000 0.000 0.610 15000.000 0.000 0.165
104 312.00 1500.00 125 168 0.740 10000.000 0.000 0.610 15000.000 0.000 0.165
105 315.00 1500.00 104 159 0.740 10000.000 0.000 0.610 15000.000 0.000 0.165
106 318.00 1500.00 130 157 0.740 10000.000 0.000 0.610 15000.000 0.000 0.165
107 321.00 1500.00 120 146 0.740 10000.000 0.000 0.610 15000.000 0.000 0.165
108 324.00 1500.00 139 167 0.740 10000.000 0.000 0.610 15000.000 0.000 0.165
109 327.00 1500.00 128 151 0.740 10000.000 0.000 0.610 15000.000 0.000 0.165
110 330.00 1500.00 118 145 0.740 10000.000 0.000 0.610 15000.000 0.000 0.165
111 333.00 1500.00 137 136 0.740 10000.000 0.000 0.610 15000.000 0.000 0.165
112 336.00 1500.00 135 172 0.740 10000.000 0.000 0.610 15000.000 0.000 0.165
113 339.00 1500.00 149 177 0.740 10000.000 0.000 0.610 15000.000 0.000 0.165
114 342.00 1500.00 160 170 0.740 10000.000 0.000 0.610 15000.000 0.000 0.165
115 345.00 1500.00 174 161 0.740 10000.000 0.000 0.610 15000.000 0.000 0.165
116 348.00 1500.00 160 194 0.740 10000.000 0.000 0.610 15000.000 0.000 0.165
117 351.00 1500.00 210 189 0.740 10000.000 0.000 0.610 15000.000 0.000 0.165
118 354.00 1500.00 212 187 0.740 10000.000 0.000 0.610 15000.000 0.000 0.165
119 357.00 1500.00 207 157 0.740 10000.000 0.000 0.610 15000.000 0.000 0.165
120 360.00 1500.00 210 166 0.740 10000.000 0.000 0.610 15000.000 0.000 0.165
121 363.00 1500.00 206 145 0.740 10000.000 0.000 0.610 15000.000 0.000 0.165
122 366.00 1500.00 215 160 0.740 10000.000 0.000 0.610 15000.000 0.000 0.165
123 369.00 1500.00 185 146 0.740 10000.000 0.000 0.610 15000.000 0.000 0.165
124 372.00 1500.00 165 133 0.740 10000.000 0.000 0.610 15000.000 0.000 0.165
125 375.00 1500.00 195 142 0.740 10000.000 0.000 0.610 15000.000 0.000 0.165
126 378.00 1500.00 161 155 0.740 10000.000 0.000 0.610 15000.000 0.000 0.165
127 381.00 1500.00 139 159 0.740 10000.000 0.000 0.610 15000.000 0.000 0.165
128 384.00 1500.00 176 142 0.740 10000.000 0.000 0.610 15000.000 0.000 0.165
129 387.00 1500.00 133 198 0.740 10000.000 0.000 0.610 15000.000 0.000 0.165
130 390.00 1500.00 128 256 0.740 10000.000 0.000 0.610 15000.000 0.000 0.165
131 393.00 1500.00 131 268 0.740 10000.000 0.000 0.610 15000.000 0.000 0.165
132 396.00 1500.00 122 304 0.740 10000.000 0.000 0.610 15000.000 0.000 0.165
133 399.00 1500.00 134 342 0.740 10000.000 0.000 0.610 15000.000 0.000 0.165
134 402.00 1500.00 149 366 0.740 10000.000 0.000 0.610 15000.000 0.000 0.165
135 405.00 1500.00 125 390 0.740 10000.000 0.000 0.610 15000.000 0.000 0.165
136 408.00 1500.00 125 402 0.740 10000.000 0.000 0.610 15000.000 0.000 0.165
137 411.00 1500.00 144 402 0.740 10000.000 0.000 0.610 15000.000 0.000 0.165
138 414.00 1500.00 148 405 0.740 10000.000 0.000 0.610 15000.000 0.000 0.165
139 417.00 1500.00 154 340 0.740 10000.000 0.000 0.610 15000.000 0.000 0.165
140 420.00 1500.00 151 306 0.740 10000.000 0.000 0.610 15000.000 0.000 0.165
141 423.00 1500.00 164 277 0.740 10000.000 0.000 0.610 15000.000 0.000 0.165
142 426.00 1500.00 149 212 0.740 10000.000 0.000 0.610 15000.000 0.000 0.165
143 429.00 1500.00 130 166 0.740 10000.000 0.000 0.610 15000.000 0.000 0.165
144 432.00 1500.00 137 138 0.740 10000.000 0.000 0.610 15000.000 0.000 0.165
