# BinNR microsec tot-time (s)  O-Beam AUX Ampl_1(V) f_1(Hz) phase_1(deg) Ampl_2(V) f_2(Hz) phase_2(deg) chi(pos)
0 0.00 1500.00 124 242 0.740 10000.000 0.000 0.610 15000.000 0.000 -0.154
1 3.00 1500.00 282 437 0.740 10000.000 0.000 0.610 15000.000 0.000 -0.154
2 6.00 1500.00 296 416 0.740 10000.000 0.000 0.610 15000.000 0.000 -0.154
3 9.00 1500.00 294 408 0.740 10000.000 0.000 0.610 15000.000 0.000 -0.154
4 12.00 1500.00 326 440 0.740 10000.000 0.000 0.610 15000.000 0.000 -0.154
5 15.00 1500.00 296 488 0.740 10000.000 0.000 0.610 15000.000 0.000 -0.154
6 18.00 1500.00 291 563 0.740 10000.000 0.000 0.610 15000.000 0.000 -0.154
7 21.00 1500.00 285 525 0.740 10000.000 0.000 0.610 15000.000 0.000 -0.154
8 24.00 1500.00 329 590 0.740 10000.000 0.000 0.610 15000.000 0.000 -0.154
9 27.00 1500.00 362 616 0.740 10000.000 0.000 0.610 15000.000 0.000 -0.154
10 30.00 1500.00 359 716 0.740 10000.000 0.000 0.610 15000.000 0.000 -0.154
11 33.00 1500.00 393 687 0.740 10000.000 0.000 0.610 15000.000 0.000 -0.154
12 36.00 1500.00 412 726 0.740 10000.000 0.000 0.610 15000.000 0.000 -0.154
13 39.00 1500.00 383 699 0.740 10000.000 0.000 0.610 15000.000 0.000 -0.154
14 42.00 1500.00 409 584 0.740 10000.000 0.000 0.610 15000.000 0.000 -0.154
15 45.00 1500.00 389 632 0.740 10000.000 0.000 0.610 15000.000 0.000 -0.154
16 48.00 1500.00 357 540 0.740 10000.000 0.000 0.610 15000.000 0.000 -0.154
17 51.00 1500.00 398 488 0.740 10000.000 0.000 0.610 15000.000 0.000 -0.154
18 54.00 1500.00 365 480 0.740 10000.000 0.000 0.610 15000.000 0.000 -0.154
19 57.00 1500.00 351 462 0.740 10000.000 0.000 0.610 15000.000 0.000 -0.154
20 60.00 1500.00 357 489 0.740 10000.000 0.000 0.610 15000.000 0.000 -0.154
21 63.00 1500.00 315 513 0.740 10000.000 0.000 0.610 15000.000 0.000 -0.154
22 66.00 1500.00 318 605 0.740 10000.000 0.000 0.610 15000.000 0.000 -0.154
23 69.00 1500.00 269 708 0.740 10000.000 0.000 0.610 15000.000 0.000 -0.154
24 72.00 1500.00 288 781 0.740 10000.000 0.000 0.610 15000.000 0.000 -0.154
25 75.00 1500.00 251 834 0.740 10000.000 0.000 0.610 15000.000 0.000 -0.154
26 78.00 1500.00 250 893 0.740 10000.000 0.000 0.610 15000.000 0.000 -0.154
27 81.00 1500.00 265 892 0.740 10000.000 0.000 0.610 15000.000 0.000 -0.154
28 84.00 1500.00 241 997 0.740 10000.000 0.000 0.610 15000.000 0.000 -0.154
29 87.00 1500.00 219 981 0.740 10000.000 0.000 0.610 15000.000 0.000 -0.154
30 90.00 1500.00 247 1011 0.740 10000.000 0.000 0.610 15000.000 0.000 -0.154
31 93.00 1500.00 221 896 0.740 10000.000 0.000 0.610 15000.000 0.000 -0.154
32 96.00 1500.00 248 867 0.740 10000.000 0.000 0.610 15000.000 0.000 -0.154
33 99.00 1500.00 278 855 0.740 10000.000 0.000 0.610 15000.000 0.000 -0.154
34 102.00 1500.00 299 790 0.740 10000.000 0.000 0.610 15000.000 0.000 -0.154
35 105.00 1500.00 308 690 0.740 10000.000 0.000 0.610 15000.000 0.000 -0.154
36 108.00 1500.00 376 678 0.740 10000.000 0.000 0.610 15000.000 0.000 -0.154
37 111.00 1500.00 334 627 0.740 10000.000 0.000 0.610 15000.000 0.000 -0.154
38 114.00 1500.00 393 604 0.740 10000.000 0.000 0.610 15000.000 0.000 -0.154
39 117.00 1500.00 384 553 0.740 10000.000 0.000 0.610 15000.000 0.000 -0.154
40 120.00 1500.00 447 534 0.740 10000.000 0.000 0.610 15000.000 0.000 -0.154
41 123.00 1500.00 361 542 0.740 10000.000 0.000 0.610 15000.000 0.000 -0.154
42 126.00 1500.00 400 606 0.740 10000.000 0.000 0.610 15000.000 0.000 -0.154
43 129.00 1500.00 389 576 0.740 10000.000 0.000 0.610 15000.000 0.000 -0.154
44 132.00 1500.00 398 569 0.740 10000.000 0.000 0.610 15000.000 0.000 -0.154
45 135.00 1500.00 387 594 0.740 10000.000 0.000 0.610 15000.000 0.000 -0.154
46 138.00 1500.00 334 675 0.740 10000.000 0.000 0.610 15000.000 0.000 -0.154
47 141.00 1500.00 343 645 0.740 10000.000 0.000 0.610 15000.000 0.000 -0.154
48 144.00 1500.00 337 630 0.740 10000.000 0.000 0.610 15000.000 0.000 -0.154
49 147.00 1500.00 314 647 0.740 10000.000 0.000 0.610 15000.000 0.000 -0.154
50 150.00 1500.00 340 666 0.740 10000.000 0.000 0.610 15000.000 0.000 -0.154
51 153.00 1500.00 305 637 0.740 10000.000 0.000 0.610 15000.000 0.000 -0.154
52 156.00 1500.00 290 708 0.740 10000.000 0.000 0.610 15000.000 0.000 -0.154
53 159.00 1500.00 289 662 0.740 10000.000 0.000 0.610 15000.000 0.000 -0.154
54 162.00 1500.00 294 610 0.740 10000.000 0.000 0.610 15000.000 0.000 -0.154
55 165.00 1500.00 303 548 0.740 10000.000 0.000 0.610 15000.000 0.000 -0.154
56 168.00 1500.00 325 546 0.740 10000.000 0.000 0.610 15000.000 0.000 -0.154
57 171.00 1500.00 296 549 0.740 10000.000 0.000 0.610 15000.000 0.000 -0.154
58 174.00 1500.00 324 562 0.740 10000.000 0.000 0.610 15000.000 0.000 -0.154
59 177.00 1500.00 315 534 0.740 10000.000 0.000 0.610 15000.000 0.000 -0.154
60 180.00 1500.00 275 598 0.740 10000.000 0.000 0.610 15000.000 0.000 -0.154
61 183.00 1500.00 306 649 0.740 10000.000 0.000 0.610 15000.000 0.000 -0.154
62 186.00 1500.00 347 627 0.740 10000.000 0.000 0.610 15000.000 0.000 -0.154
63 189.00 1500.00 293 690 0.740 10000.000 0.000 0.610 15000.000 0.000 -0.154
64 192.00 1500.00 310 762 0.740 10000.000 0.000 0.610 15000.000 0.000 -0.154
65 195.00 1500.00 294 810 0.740 10000.000 0.000 0.610 15000.000 0.000 -0.154
66 198.00 1500.00 289 875 0.740 10000.000 0.000 0.610 15000.000 0.000 -0.154
67 201.00 1500.00 322 904 0.740 10000.000 0.000 0.610 15000.000 0.000 -0.154
68 204.00 1500.00 304 899 0.740 10000.000 0.000 0.610 15000.000 0.000 -0.154
69 207.00 1500.00 313 983 0.740 10000.000 0.000 0.610 15000.000 0.000 -0.154
70 210.00 1500.00 302 994 0.740 10000.000 0.000 0.610 15000.000 0.000 -0.154
71 213.00 1500.00 267 992 0.740 10000.000 0.000 0.610 15000.000 0.000 -0.154
72 216.00 1500.00 308 944 0.740 10000.000 0.000 0.610 15000.000 0.000 -0.154
73 219.00 1500.00 306 875 0.740 10000.000 0.000 0.610 15000.000 0.000 -0.154
74 222.00 1500.00 343 876 0.740 10000.000 0.000 0.610 15000.000 0.000 -0.154
75 225.00 1500.00 323 725 0.740 10000.000 0.000 0.610 15000.000 0.000 -0.154
76 228.00 1500.00 397 694 0.740 10000.000 0.000 0.610 15000.000 0.000 -0.154
77 231.00 1500.00 371 566 0.740 10000.000 0.000 0.610 15000.000 0.000 -0.154
78 234.00 1500.00 376 469 0.740 10000.000 0.000 0.610 15000.000 0.000 -0.154
79 237.00 1500.00 374 426 0.740 10000.000 0.000 0.610 15000.000 0.000 -0.154
80 240.00 1500.00 384 387 0.740 10000.000 0.000 0.610 15000.000 0.000 -0.154
81 243.00 1500.00 371 346 0.740 10000.000 0.000 0.610 15000.000 0.000 -0.154
82 246.00 1500.00 401 340 0.740 10000.000 0.000 0.610 15000.000 0.000 -0.154
83 249.00 1500.00 402 298 0.740 10000.000 0.000 0.610 15000.000 0.000 -0.154
84 252.00 1500.00 406 395 0.740 10000.000 0.000 0.610 15000.000 0.000 -0.154
85 255.00 1500.00 360 386 0.740 10000.000 0.000 0.610 15000.000 0.000 -0.154
86 258.00 1500.00 333 428 0.740 10000.000 0.000 0.610 15000.000 0.000 -0.154
87 261.00 1500.00 333 531 0.740 10000.000 0.000 0.610 15000.000 0.000 -0.154
88 264.00 1500.00 322 571 0.740 10000.000 0.000 0.610 15000.000 0.000 -0.154
89 267.00 1500.00 292 634 0.740 10000.000 0.000 0.610 15000.000 0.000 -0.154
90 270.00 1500.00 335 735 0.740 10000.000 0.000 0.610 15000.000 0.000 -0.154
91 273.00 1500.00 277 846 0.740 10000.000 0.000 0.610 15000.000 0.000 -0.154
92 276.00 1500.00 263 928 0.740 10000.000 0.000 0.610 15000.000 0.000 -0.154
93 279.00 1500.00 261 932 0.740 10000.000 0.000 0.610 15000.000 0.000 -0.154
94 282.00 1500.00 263 994 0.740 10000.000 0.000 0.610 15000.000 0.000 -0.154
95 285.00 1500.00 269 899 0.740 10000.000 0.000 0.610 15000.000 0.000 -0.154
96 288.00 1500.00 295 945 0.740 10000.000 0.000 0.610 15000.000 0.000 -0.154
97 291.00 1500.00 301 912 0.740 10000.000 0.000 0.610 15000.000 0.000 -0.154
98 294.00 1500.00 298 897 0.740 10000.000 0.000 0.610 15000.000 0.000 -0.154
99 297.00 1500.00 285 873 0.740 10000.000 0.000 0.610 15000.000 0.000 -0.154
100 300.00 1500.00 326 846 0.740 10000.000 0.000 0.610 15000.000 0.000 -0.154
101 303.00 1500.00 313 763 0.740 10000.000 0.000 0.610 15000.000 0.000 -0.154
102 306.00 1500.00 323 718 0.740 10000.000 0.000 0.610 15000.000 0.000 -0.154
103 309.00 1500.00 317 672 0.740 10000.000 0.000 0.610 15000.000 0.000 -0.154
104 312.00 1500.00 296 617 0.740 10000.000 0.000 0.610 15000.000 0.000 -0.154
105 315.00 1500.00 311 594 0.740 10000.000 0.000 0.610 15000.000 0.000 -0.154
106 318.00 1500.00 299 582 0.740 10000.000 0.000 0.610 15000.000 0.000 -0.154
107 321.00 1500.00 270 539 0.740 10000.000 0.000 0.610 15000.000 0.000 -0.154
108 324.00 1500.00 271 528 0.740 10000.000 0.000 0.610 15000.000 0.000 -0.154
109 327.00 1500.00 274 560 0.740 10000.000 0.000 0.610 15000.000 0.000 -0.154
110 330.00 1500.00 256 571 0.740 10000.000 0.000 0.610 15000.000 0.000 -0.154
111 333.00 1500.00 312 631 0.740 10000.000 0.000 0.610 15000.000 0.000 -0.154
112 336.00 1500.00 310 638 0.740 10000.000 0.000 0.610 15000.000 0.000 -0.154
113 339.00 1500.00 310 658 0.740 10000.000 0.000 0.610 15000.000 0.000 -0.154
114 342.00 1500.00 332 690 0.740 10000.000 0.000 0.610 15000.000 0.000 -0.154
115 345.00 1500.00 356 678 0.740 10000.000 0.000 0.610 15000.000 0.000 -0.154
116 348.00 1500.00 347 693 0.740 10000.000 0.000 0.610 15000.000 0.000 -0.154
117 351.00 1500.00 340 725 0.740 10000.000 0.000 0.610 15000.000 0.000 -0.154
118 354.00 1500.00 381 667 0.740 10000.000 0.000 0.610 15000.000 0.000 -0.154
119 357.00 1500.00 377 628 0.740 10000.000 0.000 0.610 15000.000 0.000 -0.154
120 360.00 1500.00 374 601 0.740 10000.000 0.000 0.610 15000.000 0.000 -0.154
121 363.00 1500.00 359 612 0.740 10000.000 0.000 0.610 15000.000 0.000 -0.154
122 366.00 1500.00 375 589 0.740 10000.000 0.000 0.610 15000.000 0.000 -0.154
123 369.00 1500.00 353 530 0.740 10000.000 0.000 0.610 15000.000 0.000 -0.154
124 372.00 1500.00 345 547 0.740 10000.000 0.000 0.610 15000.000 0.000 -0.154
125 375.00 1500.00 314 512 0.740 10000.000 0.000 0.610 15000.000 0.000 -0.154
126 378.00 1500.00 342 543 0.740 10000.000 0.000 0.610 15000.000 0.000 -0.154
127 381.00 1500.00 336 566 0.740 10000.000 0.000 0.610 15000.000 0.000 -0.154
128 384.00 1500.00 337 634 0.740 10000.000 0.000 0.610 15000.000 0.000 -0.154
129 387.00 1500.00 296 697 0.740 10000.000 0.000 0.610 15000.000 0.000 -0.154
130 390.00 1500.00 288 753 0.740 10000.000 0.000 0.610 15000.000 0.000 -0.154
131 393.00 1500.00 281 778 0.740 10000.000 0.000 0.610 15000.000 0.000 -0.154
132 396.00 1500.00 285 850 0.740 10000.000 0.000 0.610 15000.000 0.000 -0.154
133 399.00 1500.00 278 838 0.740 10000.000 0.000 0.610 15000.000 0.000 -0.154
134 402.00 1500.00 315 920 0.740 10000.000 0.000 0.610 15000.000 0.000 -0.154
135 405.00 1500.00 294 925 0.740 10000.000 0.000 0.610 15000.000 0.000 -0.154
136 408.00 1500.00 317 947 0.740 10000.000 0.000 0.610 15000.000 0.000 -0.154
137 411.00 1500.00 310 920 0.740 10000.000 0.000 0.610 15000.000 0.000 -0.154
138 414.00 1500.00 299 935 0.740 10000.000 0.000 0.610 15000.000 0.000 -0.154
139 417.00 1500.00 327 934 0.740 10000.000 0.000 0.610 15000.000 0.000 -0.154
140 420.00 1500.00 315 904 0.740 10000.000 0.000 0.610 15000.000 0.000 -0.154
141 423.00 1500.00 296 802 0.740 10000.000 0.000 0.610 15000.000 0.000 -0.154
142 426.00 1500.00 313 694 0.740 10000.000 0.000 0.610 15000.000 0.000 -0.154
143 429.00 1500.00 279 647 0.740 10000.000 0.000 0.610 15000.000 0.000 -0.154
144 432.00 1500.00 299 570 0.740 10000.000 0.000 0.610 15000.000 0.000 -0.154
