# BinNR microsec tot-time (s)  O-Beam AUX Ampl(V) f(Hz) phase(deg) chi(pos)
0 0.00 1500.01 188 585 1.000 10000.000 0.000 1.494
1 3.00 1500.01 364 1098 1.000 10000.000 0.000 1.494
2 6.00 1500.01 382 1069 1.000 10000.000 0.000 1.494
3 9.00 1500.01 380 1022 1.000 10000.000 0.000 1.494
4 12.00 1500.01 361 999 1.000 10000.000 0.000 1.494
5 15.00 1500.01 347 1090 1.000 10000.000 0.000 1.494
6 18.00 1500.01 362 999 1.000 10000.000 0.000 1.494
7 21.00 1500.01 306 1004 1.000 10000.000 0.000 1.494
8 24.00 1500.01 328 924 1.000 10000.000 0.000 1.494
9 27.00 1500.01 298 1003 1.000 10000.000 0.000 1.494
10 30.00 1500.01 318 1017 1.000 10000.000 0.000 1.494
11 33.00 1500.01 335 935 1.000 10000.000 0.000 1.494
12 36.00 1500.01 327 891 1.000 10000.000 0.000 1.494
13 39.00 1500.01 302 890 1.000 10000.000 0.000 1.494
14 42.00 1500.01 315 972 1.000 10000.000 0.000 1.494
15 45.00 1500.01 307 950 1.000 10000.000 0.000 1.494
16 48.00 1500.01 283 936 1.000 10000.000 0.000 1.494
17 51.00 1500.01 318 924 1.000 10000.000 0.000 1.494
18 54.00 1500.01 312 913 1.000 10000.000 0.000 1.494
19 57.00 1500.01 327 912 1.000 10000.000 0.000 1.494
20 60.00 1500.01 317 969 1.000 10000.000 0.000 1.494
21 63.00 1500.01 349 947 1.000 10000.000 0.000 1.494
22 66.00 1500.01 310 973 1.000 10000.000 0.000 1.494
23 69.00 1500.01 361 1023 1.000 10000.000 0.000 1.494
24 72.00 1500.01 368 1049 1.000 10000.000 0.000 1.494
25 75.00 1500.01 374 1055 1.000 10000.000 0.000 1.494
26 78.00 1500.01 391 1037 1.000 10000.000 0.000 1.494
27 81.00 1500.01 359 1006 1.000 10000.000 0.000 1.494
28 84.00 1500.01 358 1086 1.000 10000.000 0.000 1.494
29 87.00 1500.01 397 1120 1.000 10000.000 0.000 1.494
30 90.00 1500.01 425 1064 1.000 10000.000 0.000 1.494
31 93.00 1500.01 342 1006 1.000 10000.000 0.000 1.494
32 96.00 1500.01 400 1072 1.000 10000.000 0.000 1.494
33 99.00 1500.01 410 1009 1.000 10000.000 0.000 1.494
34 102.00 1500.01 350 1122 1.000 10000.000 0.000 1.494
35 105.00 1500.01 375 1030 1.000 10000.000 0.000 1.494
36 108.00 1500.01 386 1093 1.000 10000.000 0.000 1.494
37 111.00 1500.01 371 1031 1.000 10000.000 0.000 1.494
38 114.00 1500.01 346 1133 1.000 10000.000 0.000 1.494
39 117.00 1500.01 354 1021 1.000 10000.000 0.000 1.494
40 120.00 1500.01 335 982 1.000 10000.000 0.000 1.494
41 123.00 1500.01 352 1013 1.000 10000.000 0.000 1.494
42 126.00 1500.01 311 958 1.000 10000.000 0.000 1.494
43 129.00 1500.01 332 940 1.000 10000.000 0.000 1.494
44 132.00 1500.01 324 968 1.000 10000.000 0.000 1.494
45 135.00 1500.01 305 922 1.000 10000.000 0.000 1.494
46 138.00 1500.01 309 932 1.000 10000.000 0.000 1.494
47 141.00 1500.01 293 887 1.000 10000.000 0.000 1.494
48 144.00 1500.01 311 925 1.000 10000.000 0.000 1.494
49 147.00 1500.01 358 909 1.000 10000.000 0.000 1.494
50 150.00 1500.01 317 944 1.000 10000.000 0.000 1.494
51 153.00 1500.01 286 880 1.000 10000.000 0.000 1.494
52 156.00 1500.01 322 880 1.000 10000.000 0.000 1.494
53 159.00 1500.01 331 943 1.000 10000.000 0.000 1.494
54 162.00 1500.01 301 860 1.000 10000.000 0.000 1.494
55 165.00 1500.01 357 917 1.000 10000.000 0.000 1.494
56 168.00 1500.01 335 988 1.000 10000.000 0.000 1.494
57 171.00 1500.01 338 912 1.000 10000.000 0.000 1.494
58 174.00 1500.01 365 1083 1.000 10000.000 0.000 1.494
59 177.00 1500.01 343 1081 1.000 10000.000 0.000 1.494
60 180.00 1500.01 346 1055 1.000 10000.000 0.000 1.494
61 183.00 1500.01 370 1060 1.000 10000.000 0.000 1.494
62 186.00 1500.01 375 1084 1.000 10000.000 0.000 1.494
63 189.00 1500.01 365 1068 1.000 10000.000 0.000 1.494
64 192.00 1500.01 407 1120 1.000 10000.000 0.000 1.494
65 195.00 1500.01 385 1043 1.000 10000.000 0.000 1.494
66 198.00 1500.01 369 1125 1.000 10000.000 0.000 1.494
67 201.00 1500.01 382 1036 1.000 10000.000 0.000 1.494
68 204.00 1500.01 404 1088 1.000 10000.000 0.000 1.494
69 207.00 1500.01 362 1084 1.000 10000.000 0.000 1.494
70 210.00 1500.01 370 1063 1.000 10000.000 0.000 1.494
71 213.00 1500.01 374 1002 1.000 10000.000 0.000 1.494
72 216.00 1500.01 381 1049 1.000 10000.000 0.000 1.494
73 219.00 1500.01 315 1037 1.000 10000.000 0.000 1.494
74 222.00 1500.01 343 1017 1.000 10000.000 0.000 1.494
75 225.00 1500.01 349 1027 1.000 10000.000 0.000 1.494
76 228.00 1500.01 337 899 1.000 10000.000 0.000 1.494
77 231.00 1500.01 358 949 1.000 10000.000 0.000 1.494
78 234.00 1500.01 297 937 1.000 10000.000 0.000 1.494
79 237.00 1500.01 296 879 1.000 10000.000 0.000 1.494
80 240.00 1500.01 347 949 1.000 10000.000 0.000 1.494
81 243.00 1500.01 293 884 1.000 10000.000 0.000 1.494
82 246.00 1500.01 279 896 1.000 10000.000 0.000 1.494
83 249.00 1500.01 292 860 1.000 10000.000 0.000 1.494
84 252.00 1500.01 321 907 1.000 10000.000 0.000 1.494
85 255.00 1500.01 329 919 1.000 10000.000 0.000 1.494
86 258.00 1500.01 305 899 1.000 10000.000 0.000 1.494
87 261.00 1500.01 339 936 1.000 10000.000 0.000 1.494
88 264.00 1500.01 340 936 1.000 10000.000 0.000 1.494
89 267.00 1500.01 355 968 1.000 10000.000 0.000 1.494
90 270.00 1500.01 322 1043 1.000 10000.000 0.000 1.494
91 273.00 1500.01 345 990 1.000 10000.000 0.000 1.494
92 276.00 1500.01 388 1034 1.000 10000.000 0.000 1.494
93 279.00 1500.01 386 1044 1.000 10000.000 0.000 1.494
94 282.00 1500.01 373 1039 1.000 10000.000 0.000 1.494
95 285.00 1500.01 366 1066 1.000 10000.000 0.000 1.494
96 288.00 1500.01 374 1059 1.000 10000.000 0.000 1.494
97 291.00 1500.01 362 986 1.000 10000.000 0.000 1.494
98 294.00 1500.01 416 1043 1.000 10000.000 0.000 1.494
99 297.00 1500.01 381 1059 1.000 10000.000 0.000 1.494
100 300.00 1500.01 360 1073 1.000 10000.000 0.000 1.494
101 303.00 1500.01 356 1025 1.000 10000.000 0.000 1.494
102 306.00 1500.01 384 1010 1.000 10000.000 0.000 1.494
103 309.00 1500.01 413 1044 1.000 10000.000 0.000 1.494
104 312.00 1500.01 350 1022 1.000 10000.000 0.000 1.494
105 315.00 1500.01 360 1027 1.000 10000.000 0.000 1.494
106 318.00 1500.01 385 1064 1.000 10000.000 0.000 1.494
107 321.00 1500.01 331 991 1.000 10000.000 0.000 1.494
108 324.00 1500.01 364 974 1.000 10000.000 0.000 1.494
109 327.00 1500.01 334 1014 1.000 10000.000 0.000 1.494
110 330.00 1500.01 326 1026 1.000 10000.000 0.000 1.494
111 333.00 1500.01 355 934 1.000 10000.000 0.000 1.494
112 336.00 1500.01 323 996 1.000 10000.000 0.000 1.494
113 339.00 1500.01 319 895 1.000 10000.000 0.000 1.494
114 342.00 1500.01 315 875 1.000 10000.000 0.000 1.494
115 345.00 1500.01 304 895 1.000 10000.000 0.000 1.494
116 348.00 1500.01 320 935 1.000 10000.000 0.000 1.494
117 351.00 1500.01 313 860 1.000 10000.000 0.000 1.494
118 354.00 1500.01 276 921 1.000 10000.000 0.000 1.494
119 357.00 1500.01 364 881 1.000 10000.000 0.000 1.494
120 360.00 1500.01 324 907 1.000 10000.000 0.000 1.494
121 363.00 1500.01 346 938 1.000 10000.000 0.000 1.494
122 366.00 1500.01 318 883 1.000 10000.000 0.000 1.494
123 369.00 1500.01 347 968 1.000 10000.000 0.000 1.494
124 372.00 1500.01 322 1031 1.000 10000.000 0.000 1.494
125 375.00 1500.01 320 1020 1.000 10000.000 0.000 1.494
126 378.00 1500.01 328 1005 1.000 10000.000 0.000 1.494
127 381.00 1500.01 363 1013 1.000 10000.000 0.000 1.494
128 384.00 1500.01 334 1048 1.000 10000.000 0.000 1.494
129 387.00 1500.01 399 1055 1.000 10000.000 0.000 1.494
130 390.00 1500.01 415 1138 1.000 10000.000 0.000 1.494
131 393.00 1500.01 361 1041 1.000 10000.000 0.000 1.494
132 396.00 1500.01 367 1099 1.000 10000.000 0.000 1.494
133 399.00 1500.01 399 1063 1.000 10000.000 0.000 1.494
134 402.00 1500.01 386 1119 1.000 10000.000 0.000 1.494
