# BinNR microsec tot-time (s)  O-Beam AUX Ampl(V) f(Hz) phase(deg) chi(pos)
0 0.00 1500.03 190 550 1.000 10000.000 0.000 -0.516
1 3.00 1500.03 379 1150 1.000 10000.000 0.000 -0.516
2 6.00 1500.03 410 1114 1.000 10000.000 0.000 -0.516
3 9.00 1500.03 359 1144 1.000 10000.000 0.000 -0.516
4 12.00 1500.03 397 1132 1.000 10000.000 0.000 -0.516
5 15.00 1500.03 333 1050 1.000 10000.000 0.000 -0.516
6 18.00 1500.03 361 1034 1.000 10000.000 0.000 -0.516
7 21.00 1500.03 325 1033 1.000 10000.000 0.000 -0.516
8 24.00 1500.03 367 992 1.000 10000.000 0.000 -0.516
9 27.00 1500.03 336 1008 1.000 10000.000 0.000 -0.516
10 30.00 1500.03 329 1045 1.000 10000.000 0.000 -0.516
11 33.00 1500.03 328 995 1.000 10000.000 0.000 -0.516
12 36.00 1500.03 344 1033 1.000 10000.000 0.000 -0.516
13 39.00 1500.03 317 940 1.000 10000.000 0.000 -0.516
14 42.00 1500.03 335 968 1.000 10000.000 0.000 -0.516
15 45.00 1500.03 316 948 1.000 10000.000 0.000 -0.516
16 48.00 1500.03 345 972 1.000 10000.000 0.000 -0.516
17 51.00 1500.03 311 1009 1.000 10000.000 0.000 -0.516
18 54.00 1500.03 337 992 1.000 10000.000 0.000 -0.516
19 57.00 1500.03 316 1023 1.000 10000.000 0.000 -0.516
20 60.00 1500.03 367 935 1.000 10000.000 0.000 -0.516
21 63.00 1500.03 341 1047 1.000 10000.000 0.000 -0.516
22 66.00 1500.03 351 1051 1.000 10000.000 0.000 -0.516
23 69.00 1500.03 365 1045 1.000 10000.000 0.000 -0.516
24 72.00 1500.03 375 1029 1.000 10000.000 0.000 -0.516
25 75.00 1500.03 361 1101 1.000 10000.000 0.000 -0.516
26 78.00 1500.03 354 1100 1.000 10000.000 0.000 -0.516
27 81.00 1500.03 370 1124 1.000 10000.000 0.000 -0.516
28 84.00 1500.03 421 1113 1.000 10000.000 0.000 -0.516
29 87.00 1500.03 396 1173 1.000 10000.000 0.000 -0.516
30 90.00 1500.03 410 1122 1.000 10000.000 0.000 -0.516
31 93.00 1500.03 387 1104 1.000 10000.000 0.000 -0.516
32 96.00 1500.03 430 1166 1.000 10000.000 0.000 -0.516
33 99.00 1500.03 408 1130 1.000 10000.000 0.000 -0.516
34 102.00 1500.03 385 1182 1.000 10000.000 0.000 -0.516
35 105.00 1500.03 388 1144 1.000 10000.000 0.000 -0.516
36 108.00 1500.03 417 1108 1.000 10000.000 0.000 -0.516
37 111.00 1500.03 348 1107 1.000 10000.000 0.000 -0.516
38 114.00 1500.03 369 1093 1.000 10000.000 0.000 -0.516
39 117.00 1500.03 369 1087 1.000 10000.000 0.000 -0.516
40 120.00 1500.03 360 1073 1.000 10000.000 0.000 -0.516
41 123.00 1500.03 356 1063 1.000 10000.000 0.000 -0.516
42 126.00 1500.03 352 1026 1.000 10000.000 0.000 -0.516
43 129.00 1500.03 350 1027 1.000 10000.000 0.000 -0.516
44 132.00 1500.03 379 984 1.000 10000.000 0.000 -0.516
45 135.00 1500.03 300 1006 1.000 10000.000 0.000 -0.516
46 138.00 1500.03 318 978 1.000 10000.000 0.000 -0.516
47 141.00 1500.03 339 964 1.000 10000.000 0.000 -0.516
48 144.00 1500.03 331 1010 1.000 10000.000 0.000 -0.516
49 147.00 1500.03 319 983 1.000 10000.000 0.000 -0.516
50 150.00 1500.03 351 985 1.000 10000.000 0.000 -0.516
51 153.00 1500.03 331 967 1.000 10000.000 0.000 -0.516
52 156.00 1500.03 324 1020 1.000 10000.000 0.000 -0.516
53 159.00 1500.03 362 983 1.000 10000.000 0.000 -0.516
54 162.00 1500.03 342 983 1.000 10000.000 0.000 -0.516
55 165.00 1500.03 334 1041 1.000 10000.000 0.000 -0.516
56 168.00 1500.03 354 1099 1.000 10000.000 0.000 -0.516
57 171.00 1500.03 361 1051 1.000 10000.000 0.000 -0.516
58 174.00 1500.03 365 1105 1.000 10000.000 0.000 -0.516
59 177.00 1500.03 375 1039 1.000 10000.000 0.000 -0.516
60 180.00 1500.03 403 1148 1.000 10000.000 0.000 -0.516
61 183.00 1500.03 382 1097 1.000 10000.000 0.000 -0.516
62 186.00 1500.03 394 1187 1.000 10000.000 0.000 -0.516
63 189.00 1500.03 393 1151 1.000 10000.000 0.000 -0.516
64 192.00 1500.03 388 1140 1.000 10000.000 0.000 -0.516
65 195.00 1500.03 421 1121 1.000 10000.000 0.000 -0.516
66 198.00 1500.03 364 1179 1.000 10000.000 0.000 -0.516
67 201.00 1500.03 373 1104 1.000 10000.000 0.000 -0.516
68 204.00 1500.03 399 1176 1.000 10000.000 0.000 -0.516
69 207.00 1500.03 368 1130 1.000 10000.000 0.000 -0.516
70 210.00 1500.03 421 1117 1.000 10000.000 0.000 -0.516
71 213.00 1500.03 364 1102 1.000 10000.000 0.000 -0.516
72 216.00 1500.03 383 1111 1.000 10000.000 0.000 -0.516
73 219.00 1500.03 349 1103 1.000 10000.000 0.000 -0.516
74 222.00 1500.03 331 1078 1.000 10000.000 0.000 -0.516
75 225.00 1500.03 347 995 1.000 10000.000 0.000 -0.516
76 228.00 1500.03 342 1083 1.000 10000.000 0.000 -0.516
77 231.00 1500.03 341 1039 1.000 10000.000 0.000 -0.516
78 234.00 1500.03 352 990 1.000 10000.000 0.000 -0.516
79 237.00 1500.03 304 997 1.000 10000.000 0.000 -0.516
80 240.00 1500.03 327 1005 1.000 10000.000 0.000 -0.516
81 243.00 1500.03 306 969 1.000 10000.000 0.000 -0.516
82 246.00 1500.03 341 974 1.000 10000.000 0.000 -0.516
83 249.00 1500.03 270 975 1.000 10000.000 0.000 -0.516
84 252.00 1500.03 307 987 1.000 10000.000 0.000 -0.516
85 255.00 1500.03 330 965 1.000 10000.000 0.000 -0.516
86 258.00 1500.03 344 984 1.000 10000.000 0.000 -0.516
87 261.00 1500.03 335 994 1.000 10000.000 0.000 -0.516
88 264.00 1500.03 347 1006 1.000 10000.000 0.000 -0.516
89 267.00 1500.03 356 1006 1.000 10000.000 0.000 -0.516
90 270.00 1500.03 400 1020 1.000 10000.000 0.000 -0.516
91 273.00 1500.03 329 1062 1.000 10000.000 0.000 -0.516
92 276.00 1500.03 397 1096 1.000 10000.000 0.000 -0.516
93 279.00 1500.03 362 1149 1.000 10000.000 0.000 -0.516
94 282.00 1500.03 427 1137 1.000 10000.000 0.000 -0.516
95 285.00 1500.03 405 1188 1.000 10000.000 0.000 -0.516
96 288.00 1500.03 380 1226 1.000 10000.000 0.000 -0.516
97 291.00 1500.03 388 1082 1.000 10000.000 0.000 -0.516
98 294.00 1500.03 390 1124 1.000 10000.000 0.000 -0.516
99 297.00 1500.03 449 1149 1.000 10000.000 0.000 -0.516
100 300.00 1500.03 389 1157 1.000 10000.000 0.000 -0.516
101 303.00 1500.03 386 1147 1.000 10000.000 0.000 -0.516
102 306.00 1500.03 418 1165 1.000 10000.000 0.000 -0.516
103 309.00 1500.03 369 1152 1.000 10000.000 0.000 -0.516
104 312.00 1500.03 381 1121 1.000 10000.000 0.000 -0.516
105 315.00 1500.03 397 1067 1.000 10000.000 0.000 -0.516
106 318.00 1500.03 363 1082 1.000 10000.000 0.000 -0.516
107 321.00 1500.03 369 1122 1.000 10000.000 0.000 -0.516
108 324.00 1500.03 353 988 1.000 10000.000 0.000 -0.516
109 327.00 1500.03 329 969 1.000 10000.000 0.000 -0.516
110 330.00 1500.03 326 1013 1.000 10000.000 0.000 -0.516
111 333.00 1500.03 332 945 1.000 10000.000 0.000 -0.516
112 336.00 1500.03 314 1007 1.000 10000.000 0.000 -0.516
113 339.00 1500.03 330 958 1.000 10000.000 0.000 -0.516
114 342.00 1500.03 320 1040 1.000 10000.000 0.000 -0.516
115 345.00 1500.03 319 903 1.000 10000.000 0.000 -0.516
116 348.00 1500.03 286 986 1.000 10000.000 0.000 -0.516
117 351.00 1500.03 307 949 1.000 10000.000 0.000 -0.516
118 354.00 1500.03 287 989 1.000 10000.000 0.000 -0.516
119 357.00 1500.03 348 992 1.000 10000.000 0.000 -0.516
120 360.00 1500.03 350 1016 1.000 10000.000 0.000 -0.516
121 363.00 1500.03 346 1042 1.000 10000.000 0.000 -0.516
122 366.00 1500.03 356 1071 1.000 10000.000 0.000 -0.516
123 369.00 1500.03 328 1077 1.000 10000.000 0.000 -0.516
124 372.00 1500.03 327 1070 1.000 10000.000 0.000 -0.516
125 375.00 1500.03 344 1075 1.000 10000.000 0.000 -0.516
126 378.00 1500.03 380 1067 1.000 10000.000 0.000 -0.516
127 381.00 1500.03 355 1056 1.000 10000.000 0.000 -0.516
128 384.00 1500.03 375 1123 1.000 10000.000 0.000 -0.516
129 387.00 1500.03 372 1166 1.000 10000.000 0.000 -0.516
130 390.00 1500.03 394 1179 1.000 10000.000 0.000 -0.516
131 393.00 1500.03 346 1109 1.000 10000.000 0.000 -0.516
132 396.00 1500.03 405 1117 1.000 10000.000 0.000 -0.516
133 399.00 1500.03 398 1120 1.000 10000.000 0.000 -0.516
134 402.00 1500.03 377 1112 1.000 10000.000 0.000 -0.516
