# BinNR microsec tot-time (s)  O-Beam H-beam AUX Ampl(V) f(Hz) phase(deg) chi(pos)
0 0.00 900.00 460 377 2 0.000 3.343 2000.000 1.219
1 25.00 900.00 392 434 2 0.000 3.343 2000.000 1.219
2 50.00 900.00 396 514 1 0.000 3.343 2000.000 1.219
3 75.00 900.00 397 651 1 0.000 3.343 2000.000 1.219
4 100.00 900.00 456 841 3 0.000 3.343 2000.000 1.219
5 125.00 900.00 482 808 3 0.000 3.343 2000.000 1.219
6 150.00 900.00 428 819 0 0.000 3.343 2000.000 1.219
7 175.00 900.00 340 809 0 0.000 3.343 2000.000 1.219
8 200.00 900.00 190 802 3 0.000 3.343 2000.000 1.219
9 225.00 900.00 97 822 0 0.000 3.343 2000.000 1.219
10 250.00 900.00 89 780 3 0.000 3.343 2000.000 1.219
11 275.00 900.00 114 799 0 0.000 3.343 2000.000 1.219
12 300.00 900.00 139 624 0 0.000 3.343 2000.000 1.219
13 325.00 900.00 117 526 3 0.000 3.343 2000.000 1.219
14 350.00 900.00 72 382 4 0.000 3.343 2000.000 1.219
15 375.00 900.00 77 467 2 0.000 3.343 2000.000 1.219
16 400.00 900.00 149 423 3 0.000 3.343 2000.000 1.219
17 425.00 900.00 265 520 4 0.000 3.343 2000.000 1.219
18 450.00 900.00 444 461 5 0.000 3.343 2000.000 1.219
19 475.00 900.00 460 460 1 0.000 3.343 2000.000 1.219
20 500.00 900.00 475 399 5 0.000 3.343 2000.000 1.219
21 525.00 900.00 410 428 3 0.000 3.343 2000.000 1.219
22 550.00 900.00 418 483 2 0.000 3.343 2000.000 1.219
23 575.00 900.00 399 683 2 0.000 3.343 2000.000 1.219
24 600.00 900.00 453 740 5 0.000 3.343 2000.000 1.219
25 625.00 900.00 492 816 1 0.000 3.343 2000.000 1.219
26 650.00 900.00 441 762 2 0.000 3.343 2000.000 1.219
27 675.00 900.00 323 721 1 0.000 3.343 2000.000 1.219
28 700.00 900.00 172 827 2 0.000 3.343 2000.000 1.219
29 725.00 900.00 88 718 2 0.000 3.343 2000.000 1.219
30 750.00 900.00 91 830 2 0.000 3.343 2000.000 1.219
31 775.00 900.00 112 707 2 0.000 3.343 2000.000 1.219
32 800.00 900.00 129 672 7 0.000 3.343 2000.000 1.219
33 825.00 900.00 110 495 5 0.000 3.343 2000.000 1.219
34 850.00 900.00 85 421 1 0.000 3.343 2000.000 1.219
35 875.00 900.00 80 398 0 0.000 3.343 2000.000 1.219
36 900.00 900.00 154 447 6 0.000 3.343 2000.000 1.219
37 925.00 900.00 294 491 4 0.000 3.343 2000.000 1.219
38 950.00 900.00 428 486 0 0.000 3.343 2000.000 1.219
39 975.00 900.00 489 424 2 0.000 3.343 2000.000 1.219
