# BinNR microsec tot-time (s)  O-Beam AUX Ampl(V) f(Hz) phase(deg) chi(pos)
0 0.00 1500.01 69 106 2.050 10000.000 0.000 0.670
1 3.00 1500.01 180 172 2.050 10000.000 0.000 0.670
2 6.00 1500.01 134 207 2.050 10000.000 0.000 0.670
3 9.00 1500.01 163 220 2.050 10000.000 0.000 0.670
4 12.00 1500.01 195 233 2.050 10000.000 0.000 0.670
5 15.00 1500.01 153 299 2.050 10000.000 0.000 0.670
6 18.00 1500.01 169 353 2.050 10000.000 0.000 0.670
7 21.00 1500.01 177 390 2.050 10000.000 0.000 0.670
8 24.00 1500.01 205 475 2.050 10000.000 0.000 0.670
9 27.00 1500.01 187 508 2.050 10000.000 0.000 0.670
10 30.00 1500.01 209 603 2.050 10000.000 0.000 0.670
11 33.00 1500.01 206 607 2.050 10000.000 0.000 0.670
12 36.00 1500.01 230 687 2.050 10000.000 0.000 0.670
13 39.00 1500.01 208 648 2.050 10000.000 0.000 0.670
14 42.00 1500.01 205 673 2.050 10000.000 0.000 0.670
15 45.00 1500.01 230 653 2.050 10000.000 0.000 0.670
16 48.00 1500.01 225 661 2.050 10000.000 0.000 0.670
17 51.00 1500.01 220 664 2.050 10000.000 0.000 0.670
18 54.00 1500.01 178 694 2.050 10000.000 0.000 0.670
19 57.00 1500.01 205 550 2.050 10000.000 0.000 0.670
20 60.00 1500.01 169 604 2.050 10000.000 0.000 0.670
21 63.00 1500.01 191 513 2.050 10000.000 0.000 0.670
22 66.00 1500.01 169 456 2.050 10000.000 0.000 0.670
23 69.00 1500.01 172 393 2.050 10000.000 0.000 0.670
24 72.00 1500.01 162 335 2.050 10000.000 0.000 0.670
25 75.00 1500.01 121 275 2.050 10000.000 0.000 0.670
26 78.00 1500.01 150 249 2.050 10000.000 0.000 0.670
27 81.00 1500.01 162 239 2.050 10000.000 0.000 0.670
28 84.00 1500.01 131 177 2.050 10000.000 0.000 0.670
29 87.00 1500.01 147 192 2.050 10000.000 0.000 0.670
30 90.00 1500.01 163 183 2.050 10000.000 0.000 0.670
31 93.00 1500.01 149 156 2.050 10000.000 0.000 0.670
32 96.00 1500.01 159 183 2.050 10000.000 0.000 0.670
33 99.00 1500.01 161 178 2.050 10000.000 0.000 0.670
34 102.00 1500.01 155 189 2.050 10000.000 0.000 0.670
35 105.00 1500.01 173 169 2.050 10000.000 0.000 0.670
36 108.00 1500.01 189 200 2.050 10000.000 0.000 0.670
37 111.00 1500.01 157 198 2.050 10000.000 0.000 0.670
38 114.00 1500.01 175 235 2.050 10000.000 0.000 0.670
39 117.00 1500.01 143 255 2.050 10000.000 0.000 0.670
40 120.00 1500.01 179 353 2.050 10000.000 0.000 0.670
41 123.00 1500.01 187 366 2.050 10000.000 0.000 0.670
42 126.00 1500.01 204 402 2.050 10000.000 0.000 0.670
43 129.00 1500.01 205 499 2.050 10000.000 0.000 0.670
44 132.00 1500.01 197 553 2.050 10000.000 0.000 0.670
45 135.00 1500.01 226 633 2.050 10000.000 0.000 0.670
46 138.00 1500.01 207 674 2.050 10000.000 0.000 0.670
47 141.00 1500.01 235 712 2.050 10000.000 0.000 0.670
48 144.00 1500.01 241 707 2.050 10000.000 0.000 0.670
49 147.00 1500.01 231 716 2.050 10000.000 0.000 0.670
50 150.00 1500.01 200 720 2.050 10000.000 0.000 0.670
51 153.00 1500.01 203 641 2.050 10000.000 0.000 0.670
52 156.00 1500.01 188 648 2.050 10000.000 0.000 0.670
53 159.00 1500.01 199 594 2.050 10000.000 0.000 0.670
54 162.00 1500.01 190 543 2.050 10000.000 0.000 0.670
55 165.00 1500.01 162 472 2.050 10000.000 0.000 0.670
56 168.00 1500.01 181 425 2.050 10000.000 0.000 0.670
57 171.00 1500.01 129 349 2.050 10000.000 0.000 0.670
58 174.00 1500.01 154 312 2.050 10000.000 0.000 0.670
59 177.00 1500.01 122 271 2.050 10000.000 0.000 0.670
60 180.00 1500.01 154 227 2.050 10000.000 0.000 0.670
61 183.00 1500.01 170 220 2.050 10000.000 0.000 0.670
62 186.00 1500.01 161 208 2.050 10000.000 0.000 0.670
63 189.00 1500.01 162 181 2.050 10000.000 0.000 0.670
64 192.00 1500.01 145 189 2.050 10000.000 0.000 0.670
65 195.00 1500.01 147 194 2.050 10000.000 0.000 0.670
66 198.00 1500.01 173 176 2.050 10000.000 0.000 0.670
67 201.00 1500.01 173 183 2.050 10000.000 0.000 0.670
68 204.00 1500.01 141 184 2.050 10000.000 0.000 0.670
69 207.00 1500.01 157 173 2.050 10000.000 0.000 0.670
70 210.00 1500.01 151 185 2.050 10000.000 0.000 0.670
71 213.00 1500.01 167 227 2.050 10000.000 0.000 0.670
72 216.00 1500.01 161 226 2.050 10000.000 0.000 0.670
73 219.00 1500.01 174 287 2.050 10000.000 0.000 0.670
74 222.00 1500.01 200 355 2.050 10000.000 0.000 0.670
75 225.00 1500.01 183 415 2.050 10000.000 0.000 0.670
76 228.00 1500.01 195 481 2.050 10000.000 0.000 0.670
77 231.00 1500.01 233 543 2.050 10000.000 0.000 0.670
78 234.00 1500.01 225 602 2.050 10000.000 0.000 0.670
79 237.00 1500.01 207 598 2.050 10000.000 0.000 0.670
80 240.00 1500.01 229 699 2.050 10000.000 0.000 0.670
81 243.00 1500.01 243 716 2.050 10000.000 0.000 0.670
82 246.00 1500.01 233 727 2.050 10000.000 0.000 0.670
83 249.00 1500.01 221 713 2.050 10000.000 0.000 0.670
84 252.00 1500.01 221 716 2.050 10000.000 0.000 0.670
85 255.00 1500.01 191 677 2.050 10000.000 0.000 0.670
86 258.00 1500.01 202 567 2.050 10000.000 0.000 0.670
87 261.00 1500.01 160 591 2.050 10000.000 0.000 0.670
88 264.00 1500.01 170 520 2.050 10000.000 0.000 0.670
89 267.00 1500.01 169 410 2.050 10000.000 0.000 0.670
90 270.00 1500.01 152 401 2.050 10000.000 0.000 0.670
91 273.00 1500.01 155 337 2.050 10000.000 0.000 0.670
92 276.00 1500.01 184 254 2.050 10000.000 0.000 0.670
93 279.00 1500.01 145 214 2.050 10000.000 0.000 0.670
94 282.00 1500.01 144 227 2.050 10000.000 0.000 0.670
95 285.00 1500.01 130 215 2.050 10000.000 0.000 0.670
96 288.00 1500.01 141 176 2.050 10000.000 0.000 0.670
97 291.00 1500.01 155 173 2.050 10000.000 0.000 0.670
98 294.00 1500.01 178 199 2.050 10000.000 0.000 0.670
99 297.00 1500.01 136 191 2.050 10000.000 0.000 0.670
100 300.00 1500.01 155 162 2.050 10000.000 0.000 0.670
101 303.00 1500.01 163 178 2.050 10000.000 0.000 0.670
102 306.00 1500.01 161 178 2.050 10000.000 0.000 0.670
103 309.00 1500.01 169 177 2.050 10000.000 0.000 0.670
104 312.00 1500.01 155 209 2.050 10000.000 0.000 0.670
105 315.00 1500.01 166 234 2.050 10000.000 0.000 0.670
106 318.00 1500.01 173 260 2.050 10000.000 0.000 0.670
107 321.00 1500.01 172 345 2.050 10000.000 0.000 0.670
108 324.00 1500.01 201 423 2.050 10000.000 0.000 0.670
109 327.00 1500.01 182 447 2.050 10000.000 0.000 0.670
110 330.00 1500.01 213 550 2.050 10000.000 0.000 0.670
111 333.00 1500.01 221 594 2.050 10000.000 0.000 0.670
112 336.00 1500.01 212 676 2.050 10000.000 0.000 0.670
113 339.00 1500.01 199 672 2.050 10000.000 0.000 0.670
114 342.00 1500.01 227 715 2.050 10000.000 0.000 0.670
115 345.00 1500.01 200 732 2.050 10000.000 0.000 0.670
116 348.00 1500.01 218 737 2.050 10000.000 0.000 0.670
117 351.00 1500.01 228 695 2.050 10000.000 0.000 0.670
118 354.00 1500.01 190 672 2.050 10000.000 0.000 0.670
119 357.00 1500.01 183 637 2.050 10000.000 0.000 0.670
120 360.00 1500.01 176 586 2.050 10000.000 0.000 0.670
121 363.00 1500.01 172 544 2.050 10000.000 0.000 0.670
122 366.00 1500.01 151 460 2.050 10000.000 0.000 0.670
123 369.00 1500.01 167 387 2.050 10000.000 0.000 0.670
124 372.00 1500.01 167 361 2.050 10000.000 0.000 0.670
125 375.00 1500.01 155 297 2.050 10000.000 0.000 0.670
126 378.00 1500.01 167 233 2.050 10000.000 0.000 0.670
127 381.00 1500.01 152 223 2.050 10000.000 0.000 0.670
128 384.00 1500.01 168 210 2.050 10000.000 0.000 0.670
129 387.00 1500.01 132 189 2.050 10000.000 0.000 0.670
130 390.00 1500.01 129 191 2.050 10000.000 0.000 0.670
131 393.00 1500.01 160 181 2.050 10000.000 0.000 0.670
132 396.00 1500.01 147 182 2.050 10000.000 0.000 0.670
133 399.00 1500.01 179 176 2.050 10000.000 0.000 0.670
134 402.00 1500.01 162 178 2.050 10000.000 0.000 0.670
