# BinNR microsec tot-time (s)  O-Beam AUX Ampl(V) f(Hz) phase(deg) chi(pos)
0 0.00 1500.01 233 768 2.050 10000.000 0.000 1.340
1 3.00 1500.01 451 1505 2.050 10000.000 0.000 1.340
2 6.00 1500.01 477 1517 2.050 10000.000 0.000 1.340
3 9.00 1500.01 415 1539 2.050 10000.000 0.000 1.340
4 12.00 1500.01 432 1508 2.050 10000.000 0.000 1.340
5 15.00 1500.01 414 1422 2.050 10000.000 0.000 1.340
6 18.00 1500.01 420 1365 2.050 10000.000 0.000 1.340
7 21.00 1500.01 393 1267 2.050 10000.000 0.000 1.340
8 24.00 1500.01 340 1242 2.050 10000.000 0.000 1.340
9 27.00 1500.01 358 1248 2.050 10000.000 0.000 1.340
10 30.00 1500.01 352 1073 2.050 10000.000 0.000 1.340
11 33.00 1500.01 294 1012 2.050 10000.000 0.000 1.340
12 36.00 1500.01 324 1058 2.050 10000.000 0.000 1.340
13 39.00 1500.01 314 1047 2.050 10000.000 0.000 1.340
14 42.00 1500.01 307 1110 2.050 10000.000 0.000 1.340
15 45.00 1500.01 309 1071 2.050 10000.000 0.000 1.340
16 48.00 1500.01 305 1089 2.050 10000.000 0.000 1.340
17 51.00 1500.01 298 1105 2.050 10000.000 0.000 1.340
18 54.00 1500.01 342 1093 2.050 10000.000 0.000 1.340
19 57.00 1500.01 320 1188 2.050 10000.000 0.000 1.340
20 60.00 1500.01 345 1147 2.050 10000.000 0.000 1.340
21 63.00 1500.01 337 1191 2.050 10000.000 0.000 1.340
22 66.00 1500.01 418 1285 2.050 10000.000 0.000 1.340
23 69.00 1500.01 377 1293 2.050 10000.000 0.000 1.340
24 72.00 1500.01 409 1400 2.050 10000.000 0.000 1.340
25 75.00 1500.01 405 1448 2.050 10000.000 0.000 1.340
26 78.00 1500.01 448 1461 2.050 10000.000 0.000 1.340
27 81.00 1500.01 439 1509 2.050 10000.000 0.000 1.340
28 84.00 1500.01 400 1567 2.050 10000.000 0.000 1.340
29 87.00 1500.01 438 1510 2.050 10000.000 0.000 1.340
30 90.00 1500.01 456 1546 2.050 10000.000 0.000 1.340
31 93.00 1500.01 461 1413 2.050 10000.000 0.000 1.340
32 96.00 1500.01 477 1594 2.050 10000.000 0.000 1.340
33 99.00 1500.01 489 1468 2.050 10000.000 0.000 1.340
34 102.00 1500.01 471 1564 2.050 10000.000 0.000 1.340
35 105.00 1500.01 411 1541 2.050 10000.000 0.000 1.340
36 108.00 1500.01 462 1493 2.050 10000.000 0.000 1.340
37 111.00 1500.01 419 1476 2.050 10000.000 0.000 1.340
38 114.00 1500.01 395 1463 2.050 10000.000 0.000 1.340
39 117.00 1500.01 427 1482 2.050 10000.000 0.000 1.340
40 120.00 1500.01 389 1382 2.050 10000.000 0.000 1.340
41 123.00 1500.01 382 1308 2.050 10000.000 0.000 1.340
42 126.00 1500.01 377 1339 2.050 10000.000 0.000 1.340
43 129.00 1500.01 342 1184 2.050 10000.000 0.000 1.340
44 132.00 1500.01 330 1201 2.050 10000.000 0.000 1.340
45 135.00 1500.01 358 1062 2.050 10000.000 0.000 1.340
46 138.00 1500.01 340 1096 2.050 10000.000 0.000 1.340
47 141.00 1500.01 304 968 2.050 10000.000 0.000 1.340
48 144.00 1500.01 324 971 2.050 10000.000 0.000 1.340
49 147.00 1500.01 297 983 2.050 10000.000 0.000 1.340
50 150.00 1500.01 323 1061 2.050 10000.000 0.000 1.340
51 153.00 1500.01 349 1038 2.050 10000.000 0.000 1.340
52 156.00 1500.01 344 1078 2.050 10000.000 0.000 1.340
53 159.00 1500.01 348 1149 2.050 10000.000 0.000 1.340
54 162.00 1500.01 436 1178 2.050 10000.000 0.000 1.340
55 165.00 1500.01 422 1181 2.050 10000.000 0.000 1.340
56 168.00 1500.01 400 1369 2.050 10000.000 0.000 1.340
57 171.00 1500.01 393 1430 2.050 10000.000 0.000 1.340
58 174.00 1500.01 401 1447 2.050 10000.000 0.000 1.340
59 177.00 1500.01 406 1402 2.050 10000.000 0.000 1.340
60 180.00 1500.01 424 1521 2.050 10000.000 0.000 1.340
61 183.00 1500.01 432 1503 2.050 10000.000 0.000 1.340
62 186.00 1500.01 430 1533 2.050 10000.000 0.000 1.340
63 189.00 1500.01 437 1529 2.050 10000.000 0.000 1.340
64 192.00 1500.01 453 1562 2.050 10000.000 0.000 1.340
65 195.00 1500.01 464 1509 2.050 10000.000 0.000 1.340
66 198.00 1500.01 458 1499 2.050 10000.000 0.000 1.340
67 201.00 1500.01 467 1480 2.050 10000.000 0.000 1.340
68 204.00 1500.01 468 1575 2.050 10000.000 0.000 1.340
69 207.00 1500.01 429 1566 2.050 10000.000 0.000 1.340
70 210.00 1500.01 443 1503 2.050 10000.000 0.000 1.340
71 213.00 1500.01 402 1444 2.050 10000.000 0.000 1.340
72 216.00 1500.01 409 1455 2.050 10000.000 0.000 1.340
73 219.00 1500.01 399 1453 2.050 10000.000 0.000 1.340
74 222.00 1500.01 420 1315 2.050 10000.000 0.000 1.340
75 225.00 1500.01 401 1300 2.050 10000.000 0.000 1.340
76 228.00 1500.01 358 1255 2.050 10000.000 0.000 1.340
77 231.00 1500.01 347 1149 2.050 10000.000 0.000 1.340
78 234.00 1500.01 329 1068 2.050 10000.000 0.000 1.340
79 237.00 1500.01 306 1047 2.050 10000.000 0.000 1.340
80 240.00 1500.01 353 1034 2.050 10000.000 0.000 1.340
81 243.00 1500.01 301 975 2.050 10000.000 0.000 1.340
82 246.00 1500.01 299 943 2.050 10000.000 0.000 1.340
83 249.00 1500.01 331 1010 2.050 10000.000 0.000 1.340
84 252.00 1500.01 295 968 2.050 10000.000 0.000 1.340
85 255.00 1500.01 353 1077 2.050 10000.000 0.000 1.340
86 258.00 1500.01 337 1109 2.050 10000.000 0.000 1.340
87 261.00 1500.01 356 1137 2.050 10000.000 0.000 1.340
88 264.00 1500.01 364 1255 2.050 10000.000 0.000 1.340
89 267.00 1500.01 367 1232 2.050 10000.000 0.000 1.340
90 270.00 1500.01 387 1357 2.050 10000.000 0.000 1.340
91 273.00 1500.01 401 1365 2.050 10000.000 0.000 1.340
92 276.00 1500.01 447 1409 2.050 10000.000 0.000 1.340
93 279.00 1500.01 450 1462 2.050 10000.000 0.000 1.340
94 282.00 1500.01 466 1423 2.050 10000.000 0.000 1.340
95 285.00 1500.01 431 1528 2.050 10000.000 0.000 1.340
96 288.00 1500.01 488 1473 2.050 10000.000 0.000 1.340
97 291.00 1500.01 446 1519 2.050 10000.000 0.000 1.340
98 294.00 1500.01 490 1537 2.050 10000.000 0.000 1.340
99 297.00 1500.01 451 1523 2.050 10000.000 0.000 1.340
100 300.00 1500.01 427 1498 2.050 10000.000 0.000 1.340
101 303.00 1500.01 450 1509 2.050 10000.000 0.000 1.340
102 306.00 1500.01 455 1522 2.050 10000.000 0.000 1.340
103 309.00 1500.01 388 1511 2.050 10000.000 0.000 1.340
104 312.00 1500.01 432 1528 2.050 10000.000 0.000 1.340
105 315.00 1500.01 427 1513 2.050 10000.000 0.000 1.340
106 318.00 1500.01 381 1475 2.050 10000.000 0.000 1.340
107 321.00 1500.01 353 1401 2.050 10000.000 0.000 1.340
108 324.00 1500.01 394 1371 2.050 10000.000 0.000 1.340
109 327.00 1500.01 352 1270 2.050 10000.000 0.000 1.340
110 330.00 1500.01 340 1211 2.050 10000.000 0.000 1.340
111 333.00 1500.01 328 1123 2.050 10000.000 0.000 1.340
112 336.00 1500.01 347 1043 2.050 10000.000 0.000 1.340
113 339.00 1500.01 310 1010 2.050 10000.000 0.000 1.340
114 342.00 1500.01 290 1010 2.050 10000.000 0.000 1.340
115 345.00 1500.01 314 997 2.050 10000.000 0.000 1.340
116 348.00 1500.01 325 964 2.050 10000.000 0.000 1.340
117 351.00 1500.01 312 975 2.050 10000.000 0.000 1.340
118 354.00 1500.01 335 1073 2.050 10000.000 0.000 1.340
119 357.00 1500.01 333 1078 2.050 10000.000 0.000 1.340
120 360.00 1500.01 343 1171 2.050 10000.000 0.000 1.340
121 363.00 1500.01 378 1174 2.050 10000.000 0.000 1.340
122 366.00 1500.01 344 1249 2.050 10000.000 0.000 1.340
123 369.00 1500.01 418 1263 2.050 10000.000 0.000 1.340
124 372.00 1500.01 386 1359 2.050 10000.000 0.000 1.340
125 375.00 1500.01 386 1446 2.050 10000.000 0.000 1.340
126 378.00 1500.01 430 1480 2.050 10000.000 0.000 1.340
127 381.00 1500.01 402 1493 2.050 10000.000 0.000 1.340
128 384.00 1500.01 461 1535 2.050 10000.000 0.000 1.340
129 387.00 1500.01 479 1563 2.050 10000.000 0.000 1.340
130 390.00 1500.01 453 1505 2.050 10000.000 0.000 1.340
131 393.00 1500.01 425 1401 2.050 10000.000 0.000 1.340
132 396.00 1500.01 481 1526 2.050 10000.000 0.000 1.340
133 399.00 1500.01 424 1525 2.050 10000.000 0.000 1.340
134 402.00 1500.01 515 1532 2.050 10000.000 0.000 1.340
