# BinNR microsec tot-time (s)  O-Beam AUX Ampl(V) f(Hz) phase(deg) chi(pos)
0 0.00 1500.01 252 749 2.050 10000.000 0.000 1.505
1 3.00 1500.01 473 1464 2.050 10000.000 0.000 1.505
2 6.00 1500.01 466 1462 2.050 10000.000 0.000 1.505
3 9.00 1500.01 458 1519 2.050 10000.000 0.000 1.505
4 12.00 1500.01 458 1464 2.050 10000.000 0.000 1.505
5 15.00 1500.01 489 1542 2.050 10000.000 0.000 1.505
6 18.00 1500.01 466 1465 2.050 10000.000 0.000 1.505
7 21.00 1500.01 449 1486 2.050 10000.000 0.000 1.505
8 24.00 1500.01 449 1469 2.050 10000.000 0.000 1.505
9 27.00 1500.01 415 1392 2.050 10000.000 0.000 1.505
10 30.00 1500.01 446 1372 2.050 10000.000 0.000 1.505
11 33.00 1500.01 416 1363 2.050 10000.000 0.000 1.505
12 36.00 1500.01 381 1400 2.050 10000.000 0.000 1.505
13 39.00 1500.01 374 1395 2.050 10000.000 0.000 1.505
14 42.00 1500.01 354 1367 2.050 10000.000 0.000 1.505
15 45.00 1500.01 379 1384 2.050 10000.000 0.000 1.505
16 48.00 1500.01 412 1400 2.050 10000.000 0.000 1.505
17 51.00 1500.01 429 1366 2.050 10000.000 0.000 1.505
18 54.00 1500.01 414 1477 2.050 10000.000 0.000 1.505
19 57.00 1500.01 446 1462 2.050 10000.000 0.000 1.505
20 60.00 1500.01 397 1444 2.050 10000.000 0.000 1.505
21 63.00 1500.01 454 1489 2.050 10000.000 0.000 1.505
22 66.00 1500.01 397 1536 2.050 10000.000 0.000 1.505
23 69.00 1500.01 464 1521 2.050 10000.000 0.000 1.505
24 72.00 1500.01 430 1547 2.050 10000.000 0.000 1.505
25 75.00 1500.01 466 1502 2.050 10000.000 0.000 1.505
26 78.00 1500.01 488 1522 2.050 10000.000 0.000 1.505
27 81.00 1500.01 434 1450 2.050 10000.000 0.000 1.505
28 84.00 1500.01 445 1532 2.050 10000.000 0.000 1.505
29 87.00 1500.01 494 1469 2.050 10000.000 0.000 1.505
30 90.00 1500.01 536 1497 2.050 10000.000 0.000 1.505
31 93.00 1500.01 487 1409 2.050 10000.000 0.000 1.505
32 96.00 1500.01 512 1410 2.050 10000.000 0.000 1.505
33 99.00 1500.01 464 1442 2.050 10000.000 0.000 1.505
34 102.00 1500.01 492 1446 2.050 10000.000 0.000 1.505
35 105.00 1500.01 493 1419 2.050 10000.000 0.000 1.505
36 108.00 1500.01 516 1479 2.050 10000.000 0.000 1.505
37 111.00 1500.01 479 1498 2.050 10000.000 0.000 1.505
38 114.00 1500.01 442 1525 2.050 10000.000 0.000 1.505
39 117.00 1500.01 482 1541 2.050 10000.000 0.000 1.505
40 120.00 1500.01 445 1625 2.050 10000.000 0.000 1.505
41 123.00 1500.01 415 1532 2.050 10000.000 0.000 1.505
42 126.00 1500.01 429 1505 2.050 10000.000 0.000 1.505
43 129.00 1500.01 414 1477 2.050 10000.000 0.000 1.505
44 132.00 1500.01 431 1489 2.050 10000.000 0.000 1.505
45 135.00 1500.01 438 1371 2.050 10000.000 0.000 1.505
46 138.00 1500.01 443 1406 2.050 10000.000 0.000 1.505
47 141.00 1500.01 361 1342 2.050 10000.000 0.000 1.505
48 144.00 1500.01 398 1315 2.050 10000.000 0.000 1.505
49 147.00 1500.01 355 1299 2.050 10000.000 0.000 1.505
50 150.00 1500.01 395 1309 2.050 10000.000 0.000 1.505
51 153.00 1500.01 388 1364 2.050 10000.000 0.000 1.505
52 156.00 1500.01 417 1332 2.050 10000.000 0.000 1.505
53 159.00 1500.01 423 1430 2.050 10000.000 0.000 1.505
54 162.00 1500.01 425 1443 2.050 10000.000 0.000 1.505
55 165.00 1500.01 434 1373 2.050 10000.000 0.000 1.505
56 168.00 1500.01 489 1491 2.050 10000.000 0.000 1.505
57 171.00 1500.01 453 1484 2.050 10000.000 0.000 1.505
58 174.00 1500.01 495 1519 2.050 10000.000 0.000 1.505
59 177.00 1500.01 481 1443 2.050 10000.000 0.000 1.505
60 180.00 1500.01 489 1556 2.050 10000.000 0.000 1.505
61 183.00 1500.01 458 1486 2.050 10000.000 0.000 1.505
62 186.00 1500.01 455 1484 2.050 10000.000 0.000 1.505
63 189.00 1500.01 477 1447 2.050 10000.000 0.000 1.505
64 192.00 1500.01 500 1397 2.050 10000.000 0.000 1.505
65 195.00 1500.01 488 1339 2.050 10000.000 0.000 1.505
66 198.00 1500.01 465 1344 2.050 10000.000 0.000 1.505
67 201.00 1500.01 440 1438 2.050 10000.000 0.000 1.505
68 204.00 1500.01 453 1486 2.050 10000.000 0.000 1.505
69 207.00 1500.01 450 1442 2.050 10000.000 0.000 1.505
70 210.00 1500.01 484 1535 2.050 10000.000 0.000 1.505
71 213.00 1500.01 489 1533 2.050 10000.000 0.000 1.505
72 216.00 1500.01 453 1490 2.050 10000.000 0.000 1.505
73 219.00 1500.01 490 1453 2.050 10000.000 0.000 1.505
74 222.00 1500.01 482 1578 2.050 10000.000 0.000 1.505
75 225.00 1500.01 434 1448 2.050 10000.000 0.000 1.505
76 228.00 1500.01 413 1502 2.050 10000.000 0.000 1.505
77 231.00 1500.01 420 1364 2.050 10000.000 0.000 1.505
78 234.00 1500.01 424 1378 2.050 10000.000 0.000 1.505
79 237.00 1500.01 415 1311 2.050 10000.000 0.000 1.505
80 240.00 1500.01 396 1390 2.050 10000.000 0.000 1.505
81 243.00 1500.01 389 1306 2.050 10000.000 0.000 1.505
82 246.00 1500.01 374 1385 2.050 10000.000 0.000 1.505
83 249.00 1500.01 394 1343 2.050 10000.000 0.000 1.505
84 252.00 1500.01 401 1369 2.050 10000.000 0.000 1.505
85 255.00 1500.01 416 1343 2.050 10000.000 0.000 1.505
86 258.00 1500.01 431 1432 2.050 10000.000 0.000 1.505
87 261.00 1500.01 406 1400 2.050 10000.000 0.000 1.505
88 264.00 1500.01 449 1479 2.050 10000.000 0.000 1.505
89 267.00 1500.01 456 1529 2.050 10000.000 0.000 1.505
90 270.00 1500.01 471 1563 2.050 10000.000 0.000 1.505
91 273.00 1500.01 464 1514 2.050 10000.000 0.000 1.505
92 276.00 1500.01 509 1510 2.050 10000.000 0.000 1.505
93 279.00 1500.01 485 1525 2.050 10000.000 0.000 1.505
94 282.00 1500.01 483 1564 2.050 10000.000 0.000 1.505
95 285.00 1500.01 431 1435 2.050 10000.000 0.000 1.505
96 288.00 1500.01 444 1474 2.050 10000.000 0.000 1.505
97 291.00 1500.01 482 1418 2.050 10000.000 0.000 1.505
98 294.00 1500.01 443 1422 2.050 10000.000 0.000 1.505
99 297.00 1500.01 490 1406 2.050 10000.000 0.000 1.505
100 300.00 1500.01 500 1479 2.050 10000.000 0.000 1.505
101 303.00 1500.01 517 1331 2.050 10000.000 0.000 1.505
102 306.00 1500.01 508 1515 2.050 10000.000 0.000 1.505
103 309.00 1500.01 480 1444 2.050 10000.000 0.000 1.505
104 312.00 1500.01 486 1549 2.050 10000.000 0.000 1.505
105 315.00 1500.01 455 1537 2.050 10000.000 0.000 1.505
106 318.00 1500.01 514 1564 2.050 10000.000 0.000 1.505
107 321.00 1500.01 441 1429 2.050 10000.000 0.000 1.505
108 324.00 1500.01 422 1495 2.050 10000.000 0.000 1.505
109 327.00 1500.01 467 1403 2.050 10000.000 0.000 1.505
110 330.00 1500.01 442 1387 2.050 10000.000 0.000 1.505
111 333.00 1500.01 403 1407 2.050 10000.000 0.000 1.505
112 336.00 1500.01 425 1406 2.050 10000.000 0.000 1.505
113 339.00 1500.01 386 1377 2.050 10000.000 0.000 1.505
114 342.00 1500.01 435 1401 2.050 10000.000 0.000 1.505
115 345.00 1500.01 401 1298 2.050 10000.000 0.000 1.505
116 348.00 1500.01 406 1309 2.050 10000.000 0.000 1.505
117 351.00 1500.01 412 1285 2.050 10000.000 0.000 1.505
118 354.00 1500.01 419 1425 2.050 10000.000 0.000 1.505
119 357.00 1500.01 409 1375 2.050 10000.000 0.000 1.505
120 360.00 1500.01 434 1401 2.050 10000.000 0.000 1.505
121 363.00 1500.01 437 1419 2.050 10000.000 0.000 1.505
122 366.00 1500.01 418 1533 2.050 10000.000 0.000 1.505
123 369.00 1500.01 417 1535 2.050 10000.000 0.000 1.505
124 372.00 1500.01 470 1514 2.050 10000.000 0.000 1.505
125 375.00 1500.01 436 1466 2.050 10000.000 0.000 1.505
126 378.00 1500.01 479 1436 2.050 10000.000 0.000 1.505
127 381.00 1500.01 488 1550 2.050 10000.000 0.000 1.505
128 384.00 1500.01 514 1471 2.050 10000.000 0.000 1.505
129 387.00 1500.01 450 1444 2.050 10000.000 0.000 1.505
130 390.00 1500.01 466 1467 2.050 10000.000 0.000 1.505
131 393.00 1500.01 463 1487 2.050 10000.000 0.000 1.505
132 396.00 1500.01 462 1402 2.050 10000.000 0.000 1.505
133 399.00 1500.01 441 1397 2.050 10000.000 0.000 1.505
134 402.00 1500.01 479 1448 2.050 10000.000 0.000 1.505
