# BinNR microsec tot-time (s)  O-Beam AUX Ampl(V) f(Hz) phase(deg) chi(pos)
0 0.00 1500.00 271 647 1.000 10000.000 0.000 1.505
1 3.00 1500.00 439 1346 1.000 10000.000 0.000 1.505
2 6.00 1500.00 476 1319 1.000 10000.000 0.000 1.505
3 9.00 1500.00 455 1336 1.000 10000.000 0.000 1.505
4 12.00 1500.00 458 1332 1.000 10000.000 0.000 1.505
5 15.00 1500.00 455 1297 1.000 10000.000 0.000 1.505
6 18.00 1500.00 460 1336 1.000 10000.000 0.000 1.505
7 21.00 1500.00 446 1196 1.000 10000.000 0.000 1.505
8 24.00 1500.00 487 1212 1.000 10000.000 0.000 1.505
9 27.00 1500.00 440 1332 1.000 10000.000 0.000 1.505
10 30.00 1500.00 441 1157 1.000 10000.000 0.000 1.505
11 33.00 1500.00 422 1192 1.000 10000.000 0.000 1.505
12 36.00 1500.00 488 1222 1.000 10000.000 0.000 1.505
13 39.00 1500.00 428 1211 1.000 10000.000 0.000 1.505
14 42.00 1500.00 418 1204 1.000 10000.000 0.000 1.505
15 45.00 1500.00 459 1181 1.000 10000.000 0.000 1.505
16 48.00 1500.00 484 1183 1.000 10000.000 0.000 1.505
17 51.00 1500.00 439 1189 1.000 10000.000 0.000 1.505
18 54.00 1500.00 448 1205 1.000 10000.000 0.000 1.505
19 57.00 1500.00 457 1276 1.000 10000.000 0.000 1.505
20 60.00 1500.00 445 1257 1.000 10000.000 0.000 1.505
21 63.00 1500.00 432 1221 1.000 10000.000 0.000 1.505
22 66.00 1500.00 502 1251 1.000 10000.000 0.000 1.505
23 69.00 1500.00 460 1337 1.000 10000.000 0.000 1.505
24 72.00 1500.00 476 1320 1.000 10000.000 0.000 1.505
25 75.00 1500.00 512 1305 1.000 10000.000 0.000 1.505
26 78.00 1500.00 456 1296 1.000 10000.000 0.000 1.505
27 81.00 1500.00 459 1249 1.000 10000.000 0.000 1.505
28 84.00 1500.00 476 1356 1.000 10000.000 0.000 1.505
29 87.00 1500.00 449 1303 1.000 10000.000 0.000 1.505
30 90.00 1500.00 521 1360 1.000 10000.000 0.000 1.505
31 93.00 1500.00 455 1306 1.000 10000.000 0.000 1.505
32 96.00 1500.00 437 1288 1.000 10000.000 0.000 1.505
33 99.00 1500.00 445 1306 1.000 10000.000 0.000 1.505
34 102.00 1500.00 449 1334 1.000 10000.000 0.000 1.505
35 105.00 1500.00 440 1334 1.000 10000.000 0.000 1.505
36 108.00 1500.00 445 1319 1.000 10000.000 0.000 1.505
37 111.00 1500.00 435 1273 1.000 10000.000 0.000 1.505
38 114.00 1500.00 470 1292 1.000 10000.000 0.000 1.505
39 117.00 1500.00 467 1290 1.000 10000.000 0.000 1.505
40 120.00 1500.00 486 1303 1.000 10000.000 0.000 1.505
41 123.00 1500.00 434 1211 1.000 10000.000 0.000 1.505
42 126.00 1500.00 464 1302 1.000 10000.000 0.000 1.505
43 129.00 1500.00 430 1225 1.000 10000.000 0.000 1.505
44 132.00 1500.00 439 1200 1.000 10000.000 0.000 1.505
45 135.00 1500.00 467 1225 1.000 10000.000 0.000 1.505
46 138.00 1500.00 461 1194 1.000 10000.000 0.000 1.505
47 141.00 1500.00 471 1186 1.000 10000.000 0.000 1.505
48 144.00 1500.00 471 1230 1.000 10000.000 0.000 1.505
49 147.00 1500.00 484 1164 1.000 10000.000 0.000 1.505
50 150.00 1500.00 482 1272 1.000 10000.000 0.000 1.505
51 153.00 1500.00 461 1220 1.000 10000.000 0.000 1.505
52 156.00 1500.00 487 1189 1.000 10000.000 0.000 1.505
53 159.00 1500.00 492 1261 1.000 10000.000 0.000 1.505
54 162.00 1500.00 478 1247 1.000 10000.000 0.000 1.505
55 165.00 1500.00 514 1262 1.000 10000.000 0.000 1.505
56 168.00 1500.00 457 1326 1.000 10000.000 0.000 1.505
57 171.00 1500.00 503 1275 1.000 10000.000 0.000 1.505
58 174.00 1500.00 459 1358 1.000 10000.000 0.000 1.505
59 177.00 1500.00 493 1336 1.000 10000.000 0.000 1.505
60 180.00 1500.00 465 1413 1.000 10000.000 0.000 1.505
61 183.00 1500.00 497 1309 1.000 10000.000 0.000 1.505
62 186.00 1500.00 471 1296 1.000 10000.000 0.000 1.505
63 189.00 1500.00 446 1313 1.000 10000.000 0.000 1.505
64 192.00 1500.00 483 1356 1.000 10000.000 0.000 1.505
65 195.00 1500.00 428 1336 1.000 10000.000 0.000 1.505
66 198.00 1500.00 442 1337 1.000 10000.000 0.000 1.505
67 201.00 1500.00 485 1367 1.000 10000.000 0.000 1.505
68 204.00 1500.00 463 1356 1.000 10000.000 0.000 1.505
69 207.00 1500.00 457 1325 1.000 10000.000 0.000 1.505
70 210.00 1500.00 464 1296 1.000 10000.000 0.000 1.505
71 213.00 1500.00 465 1268 1.000 10000.000 0.000 1.505
72 216.00 1500.00 425 1363 1.000 10000.000 0.000 1.505
73 219.00 1500.00 449 1332 1.000 10000.000 0.000 1.505
74 222.00 1500.00 475 1260 1.000 10000.000 0.000 1.505
75 225.00 1500.00 481 1251 1.000 10000.000 0.000 1.505
76 228.00 1500.00 435 1257 1.000 10000.000 0.000 1.505
77 231.00 1500.00 465 1219 1.000 10000.000 0.000 1.505
78 234.00 1500.00 474 1235 1.000 10000.000 0.000 1.505
79 237.00 1500.00 415 1143 1.000 10000.000 0.000 1.505
80 240.00 1500.00 466 1176 1.000 10000.000 0.000 1.505
81 243.00 1500.00 468 1151 1.000 10000.000 0.000 1.505
82 246.00 1500.00 460 1209 1.000 10000.000 0.000 1.505
83 249.00 1500.00 455 1161 1.000 10000.000 0.000 1.505
84 252.00 1500.00 464 1218 1.000 10000.000 0.000 1.505
85 255.00 1500.00 467 1161 1.000 10000.000 0.000 1.505
86 258.00 1500.00 494 1284 1.000 10000.000 0.000 1.505
87 261.00 1500.00 484 1201 1.000 10000.000 0.000 1.505
88 264.00 1500.00 435 1305 1.000 10000.000 0.000 1.505
89 267.00 1500.00 452 1313 1.000 10000.000 0.000 1.505
90 270.00 1500.00 480 1259 1.000 10000.000 0.000 1.505
91 273.00 1500.00 504 1320 1.000 10000.000 0.000 1.505
92 276.00 1500.00 475 1302 1.000 10000.000 0.000 1.505
93 279.00 1500.00 471 1289 1.000 10000.000 0.000 1.505
94 282.00 1500.00 458 1366 1.000 10000.000 0.000 1.505
95 285.00 1500.00 441 1263 1.000 10000.000 0.000 1.505
96 288.00 1500.00 468 1366 1.000 10000.000 0.000 1.505
97 291.00 1500.00 453 1342 1.000 10000.000 0.000 1.505
98 294.00 1500.00 467 1371 1.000 10000.000 0.000 1.505
99 297.00 1500.00 461 1315 1.000 10000.000 0.000 1.505
100 300.00 1500.00 470 1340 1.000 10000.000 0.000 1.505
101 303.00 1500.00 461 1306 1.000 10000.000 0.000 1.505
102 306.00 1500.00 420 1356 1.000 10000.000 0.000 1.505
103 309.00 1500.00 461 1341 1.000 10000.000 0.000 1.505
104 312.00 1500.00 468 1320 1.000 10000.000 0.000 1.505
105 315.00 1500.00 450 1353 1.000 10000.000 0.000 1.505
106 318.00 1500.00 436 1362 1.000 10000.000 0.000 1.505
107 321.00 1500.00 474 1275 1.000 10000.000 0.000 1.505
108 324.00 1500.00 460 1274 1.000 10000.000 0.000 1.505
109 327.00 1500.00 473 1219 1.000 10000.000 0.000 1.505
110 330.00 1500.00 462 1236 1.000 10000.000 0.000 1.505
111 333.00 1500.00 439 1138 1.000 10000.000 0.000 1.505
112 336.00 1500.00 470 1160 1.000 10000.000 0.000 1.505
113 339.00 1500.00 428 1216 1.000 10000.000 0.000 1.505
114 342.00 1500.00 482 1259 1.000 10000.000 0.000 1.505
115 345.00 1500.00 464 1159 1.000 10000.000 0.000 1.505
116 348.00 1500.00 470 1177 1.000 10000.000 0.000 1.505
117 351.00 1500.00 457 1184 1.000 10000.000 0.000 1.505
118 354.00 1500.00 475 1157 1.000 10000.000 0.000 1.505
119 357.00 1500.00 484 1184 1.000 10000.000 0.000 1.505
120 360.00 1500.00 455 1224 1.000 10000.000 0.000 1.505
121 363.00 1500.00 465 1227 1.000 10000.000 0.000 1.505
122 366.00 1500.00 475 1338 1.000 10000.000 0.000 1.505
123 369.00 1500.00 471 1286 1.000 10000.000 0.000 1.505
124 372.00 1500.00 476 1274 1.000 10000.000 0.000 1.505
125 375.00 1500.00 432 1387 1.000 10000.000 0.000 1.505
126 378.00 1500.00 506 1412 1.000 10000.000 0.000 1.505
127 381.00 1500.00 466 1352 1.000 10000.000 0.000 1.505
128 384.00 1500.00 476 1266 1.000 10000.000 0.000 1.505
129 387.00 1500.00 457 1314 1.000 10000.000 0.000 1.505
130 390.00 1500.00 458 1315 1.000 10000.000 0.000 1.505
131 393.00 1500.00 449 1356 1.000 10000.000 0.000 1.505
132 396.00 1500.00 465 1356 1.000 10000.000 0.000 1.505
133 399.00 1500.00 488 1384 1.000 10000.000 0.000 1.505
134 402.00 1500.00 470 1396 1.000 10000.000 0.000 1.505
