# BinNR microsec tot-time (s)  O-Beam AUX Ampl(V) f(Hz) phase(deg) chi(pos)
0 0.00 1200.02 124 441 1.100 10000.000 0.000 0.989
1 3.00 1200.02 226 866 1.100 10000.000 0.000 0.989
2 6.00 1200.02 234 849 1.100 10000.000 0.000 0.989
3 9.00 1200.02 215 856 1.100 10000.000 0.000 0.989
4 12.00 1200.02 219 804 1.100 10000.000 0.000 0.989
5 15.00 1200.02 197 782 1.100 10000.000 0.000 0.989
6 18.00 1200.02 203 766 1.100 10000.000 0.000 0.989
7 21.00 1200.02 220 733 1.100 10000.000 0.000 0.989
8 24.00 1200.02 210 776 1.100 10000.000 0.000 0.989
9 27.00 1200.02 234 731 1.100 10000.000 0.000 0.989
10 30.00 1200.02 232 823 1.100 10000.000 0.000 0.989
11 33.00 1200.02 208 775 1.100 10000.000 0.000 0.989
12 36.00 1200.02 229 806 1.100 10000.000 0.000 0.989
13 39.00 1200.02 202 755 1.100 10000.000 0.000 0.989
14 42.00 1200.02 199 828 1.100 10000.000 0.000 0.989
15 45.00 1200.02 228 789 1.100 10000.000 0.000 0.989
16 48.00 1200.02 220 813 1.100 10000.000 0.000 0.989
17 51.00 1200.02 217 828 1.100 10000.000 0.000 0.989
18 54.00 1200.02 236 893 1.100 10000.000 0.000 0.989
19 57.00 1200.02 244 812 1.100 10000.000 0.000 0.989
20 60.00 1200.02 256 854 1.100 10000.000 0.000 0.989
21 63.00 1200.02 218 801 1.100 10000.000 0.000 0.989
22 66.00 1200.02 259 779 1.100 10000.000 0.000 0.989
23 69.00 1200.02 231 801 1.100 10000.000 0.000 0.989
24 72.00 1200.02 270 750 1.100 10000.000 0.000 0.989
25 75.00 1200.02 263 736 1.100 10000.000 0.000 0.989
26 78.00 1200.02 243 751 1.100 10000.000 0.000 0.989
27 81.00 1200.02 259 724 1.100 10000.000 0.000 0.989
28 84.00 1200.02 260 713 1.100 10000.000 0.000 0.989
29 87.00 1200.02 250 705 1.100 10000.000 0.000 0.989
30 90.00 1200.02 246 742 1.100 10000.000 0.000 0.989
31 93.00 1200.02 223 711 1.100 10000.000 0.000 0.989
32 96.00 1200.02 258 778 1.100 10000.000 0.000 0.989
33 99.00 1200.02 276 745 1.100 10000.000 0.000 0.989
34 102.00 1200.02 229 742 1.100 10000.000 0.000 0.989
35 105.00 1200.02 254 748 1.100 10000.000 0.000 0.989
36 108.00 1200.02 222 799 1.100 10000.000 0.000 0.989
37 111.00 1200.02 223 757 1.100 10000.000 0.000 0.989
38 114.00 1200.02 206 810 1.100 10000.000 0.000 0.989
39 117.00 1200.02 223 756 1.100 10000.000 0.000 0.989
40 120.00 1200.02 200 893 1.100 10000.000 0.000 0.989
41 123.00 1200.02 208 795 1.100 10000.000 0.000 0.989
42 126.00 1200.02 204 863 1.100 10000.000 0.000 0.989
43 129.00 1200.02 232 772 1.100 10000.000 0.000 0.989
44 132.00 1200.02 225 853 1.100 10000.000 0.000 0.989
45 135.00 1200.02 198 822 1.100 10000.000 0.000 0.989
46 138.00 1200.02 203 850 1.100 10000.000 0.000 0.989
47 141.00 1200.02 238 818 1.100 10000.000 0.000 0.989
48 144.00 1200.02 226 823 1.100 10000.000 0.000 0.989
49 147.00 1200.02 204 793 1.100 10000.000 0.000 0.989
50 150.00 1200.02 230 842 1.100 10000.000 0.000 0.989
51 153.00 1200.02 259 848 1.100 10000.000 0.000 0.989
52 156.00 1200.02 248 822 1.100 10000.000 0.000 0.989
53 159.00 1200.02 228 794 1.100 10000.000 0.000 0.989
54 162.00 1200.02 246 769 1.100 10000.000 0.000 0.989
55 165.00 1200.02 229 801 1.100 10000.000 0.000 0.989
56 168.00 1200.02 273 744 1.100 10000.000 0.000 0.989
57 171.00 1200.02 268 747 1.100 10000.000 0.000 0.989
58 174.00 1200.02 258 743 1.100 10000.000 0.000 0.989
59 177.00 1200.02 253 733 1.100 10000.000 0.000 0.989
60 180.00 1200.02 248 754 1.100 10000.000 0.000 0.989
61 183.00 1200.02 279 697 1.100 10000.000 0.000 0.989
62 186.00 1200.02 250 747 1.100 10000.000 0.000 0.989
63 189.00 1200.02 256 719 1.100 10000.000 0.000 0.989
64 192.00 1200.02 251 687 1.100 10000.000 0.000 0.989
65 195.00 1200.02 228 720 1.100 10000.000 0.000 0.989
66 198.00 1200.02 259 688 1.100 10000.000 0.000 0.989
67 201.00 1200.02 229 751 1.100 10000.000 0.000 0.989
68 204.00 1200.02 244 764 1.100 10000.000 0.000 0.989
69 207.00 1200.02 219 698 1.100 10000.000 0.000 0.989
70 210.00 1200.02 221 791 1.100 10000.000 0.000 0.989
71 213.00 1200.02 240 729 1.100 10000.000 0.000 0.989
72 216.00 1200.02 236 752 1.100 10000.000 0.000 0.989
73 219.00 1200.02 204 800 1.100 10000.000 0.000 0.989
74 222.00 1200.02 221 777 1.100 10000.000 0.000 0.989
75 225.00 1200.02 197 770 1.100 10000.000 0.000 0.989
76 228.00 1200.02 219 844 1.100 10000.000 0.000 0.989
77 231.00 1200.02 200 780 1.100 10000.000 0.000 0.989
78 234.00 1200.02 219 783 1.100 10000.000 0.000 0.989
79 237.00 1200.02 224 822 1.100 10000.000 0.000 0.989
80 240.00 1200.02 236 802 1.100 10000.000 0.000 0.989
81 243.00 1200.02 255 849 1.100 10000.000 0.000 0.989
82 246.00 1200.02 252 878 1.100 10000.000 0.000 0.989
83 249.00 1200.02 219 852 1.100 10000.000 0.000 0.989
84 252.00 1200.02 238 816 1.100 10000.000 0.000 0.989
85 255.00 1200.02 230 782 1.100 10000.000 0.000 0.989
86 258.00 1200.02 205 815 1.100 10000.000 0.000 0.989
87 261.00 1200.02 241 701 1.100 10000.000 0.000 0.989
88 264.00 1200.02 244 800 1.100 10000.000 0.000 0.989
89 267.00 1200.02 274 736 1.100 10000.000 0.000 0.989
90 270.00 1200.02 252 758 1.100 10000.000 0.000 0.989
91 273.00 1200.02 275 708 1.100 10000.000 0.000 0.989
92 276.00 1200.02 225 672 1.100 10000.000 0.000 0.989
93 279.00 1200.02 282 710 1.100 10000.000 0.000 0.989
94 282.00 1200.02 263 779 1.100 10000.000 0.000 0.989
95 285.00 1200.02 242 716 1.100 10000.000 0.000 0.989
96 288.00 1200.02 231 646 1.100 10000.000 0.000 0.989
97 291.00 1200.02 239 716 1.100 10000.000 0.000 0.989
98 294.00 1200.02 256 714 1.100 10000.000 0.000 0.989
99 297.00 1200.02 256 746 1.100 10000.000 0.000 0.989
100 300.00 1200.02 251 734 1.100 10000.000 0.000 0.989
101 303.00 1200.02 242 684 1.100 10000.000 0.000 0.989
102 306.00 1200.02 260 770 1.100 10000.000 0.000 0.989
103 309.00 1200.02 275 749 1.100 10000.000 0.000 0.989
104 312.00 1200.02 263 816 1.100 10000.000 0.000 0.989
105 315.00 1200.02 262 775 1.100 10000.000 0.000 0.989
106 318.00 1200.02 274 773 1.100 10000.000 0.000 0.989
107 321.00 1200.02 250 754 1.100 10000.000 0.000 0.989
108 324.00 1200.02 236 873 1.100 10000.000 0.000 0.989
109 327.00 1200.02 227 830 1.100 10000.000 0.000 0.989
110 330.00 1200.02 236 804 1.100 10000.000 0.000 0.989
111 333.00 1200.02 238 852 1.100 10000.000 0.000 0.989
112 336.00 1200.02 233 869 1.100 10000.000 0.000 0.989
113 339.00 1200.02 241 857 1.100 10000.000 0.000 0.989
114 342.00 1200.02 236 808 1.100 10000.000 0.000 0.989
115 345.00 1200.02 194 806 1.100 10000.000 0.000 0.989
116 348.00 1200.02 199 851 1.100 10000.000 0.000 0.989
117 351.00 1200.02 200 806 1.100 10000.000 0.000 0.989
118 354.00 1200.02 199 802 1.100 10000.000 0.000 0.989
119 357.00 1200.02 224 790 1.100 10000.000 0.000 0.989
120 360.00 1200.02 221 760 1.100 10000.000 0.000 0.989
121 363.00 1200.02 225 715 1.100 10000.000 0.000 0.989
122 366.00 1200.02 203 755 1.100 10000.000 0.000 0.989
123 369.00 1200.02 224 754 1.100 10000.000 0.000 0.989
124 372.00 1200.02 255 792 1.100 10000.000 0.000 0.989
125 375.00 1200.02 215 769 1.100 10000.000 0.000 0.989
126 378.00 1200.02 206 745 1.100 10000.000 0.000 0.989
127 381.00 1200.02 200 646 1.100 10000.000 0.000 0.989
128 384.00 1200.02 256 707 1.100 10000.000 0.000 0.989
129 387.00 1200.02 233 679 1.100 10000.000 0.000 0.989
130 390.00 1200.02 247 778 1.100 10000.000 0.000 0.989
131 393.00 1200.02 255 693 1.100 10000.000 0.000 0.989
132 396.00 1200.02 257 713 1.100 10000.000 0.000 0.989
133 399.00 1200.02 246 698 1.100 10000.000 0.000 0.989
134 402.00 1200.02 210 715 1.100 10000.000 0.000 0.989
135 405.00 1200.02 240 733 1.100 10000.000 0.000 0.989
136 408.00 1200.02 249 744 1.100 10000.000 0.000 0.989
137 411.00 1200.02 246 767 1.100 10000.000 0.000 0.989
138 414.00 1200.02 240 792 1.100 10000.000 0.000 0.989
139 417.00 1200.02 234 757 1.100 10000.000 0.000 0.989
140 420.00 1200.02 252 801 1.100 10000.000 0.000 0.989
141 423.00 1200.02 236 774 1.100 10000.000 0.000 0.989
142 426.00 1200.02 251 805 1.100 10000.000 0.000 0.989
143 429.00 1200.02 237 768 1.100 10000.000 0.000 0.989
144 432.00 1200.02 249 811 1.100 10000.000 0.000 0.989
