# BinNR microsec tot-time (s)  O-Beam AUX Ampl(V) f(Hz) phase(deg) chi(pos)
0 0.00 1200.01 41 173 1.100 10000.000 0.000 0.659
1 3.00 1200.01 109 360 1.100 10000.000 0.000 0.659
2 6.00 1200.01 107 338 1.100 10000.000 0.000 0.659
3 9.00 1200.01 91 350 1.100 10000.000 0.000 0.659
4 12.00 1200.01 114 309 1.100 10000.000 0.000 0.659
5 15.00 1200.01 86 295 1.100 10000.000 0.000 0.659
6 18.00 1200.01 93 293 1.100 10000.000 0.000 0.659
7 21.00 1200.01 77 294 1.100 10000.000 0.000 0.659
8 24.00 1200.01 88 306 1.100 10000.000 0.000 0.659
9 27.00 1200.01 110 357 1.100 10000.000 0.000 0.659
10 30.00 1200.01 78 339 1.100 10000.000 0.000 0.659
11 33.00 1200.01 85 298 1.100 10000.000 0.000 0.659
12 36.00 1200.01 94 335 1.100 10000.000 0.000 0.659
13 39.00 1200.01 99 322 1.100 10000.000 0.000 0.659
14 42.00 1200.01 90 381 1.100 10000.000 0.000 0.659
15 45.00 1200.01 83 358 1.100 10000.000 0.000 0.659
16 48.00 1200.01 110 385 1.100 10000.000 0.000 0.659
17 51.00 1200.01 84 376 1.100 10000.000 0.000 0.659
18 54.00 1200.01 101 358 1.100 10000.000 0.000 0.659
19 57.00 1200.01 119 350 1.100 10000.000 0.000 0.659
20 60.00 1200.01 113 351 1.100 10000.000 0.000 0.659
21 63.00 1200.01 105 337 1.100 10000.000 0.000 0.659
22 66.00 1200.01 128 303 1.100 10000.000 0.000 0.659
23 69.00 1200.01 108 253 1.100 10000.000 0.000 0.659
24 72.00 1200.01 123 283 1.100 10000.000 0.000 0.659
25 75.00 1200.01 131 275 1.100 10000.000 0.000 0.659
26 78.00 1200.01 106 254 1.100 10000.000 0.000 0.659
27 81.00 1200.01 116 249 1.100 10000.000 0.000 0.659
28 84.00 1200.01 135 263 1.100 10000.000 0.000 0.659
29 87.00 1200.01 102 240 1.100 10000.000 0.000 0.659
30 90.00 1200.01 119 256 1.100 10000.000 0.000 0.659
31 93.00 1200.01 89 271 1.100 10000.000 0.000 0.659
32 96.00 1200.01 109 240 1.100 10000.000 0.000 0.659
33 99.00 1200.01 107 271 1.100 10000.000 0.000 0.659
34 102.00 1200.01 80 288 1.100 10000.000 0.000 0.659
35 105.00 1200.01 99 275 1.100 10000.000 0.000 0.659
36 108.00 1200.01 97 319 1.100 10000.000 0.000 0.659
37 111.00 1200.01 103 301 1.100 10000.000 0.000 0.659
38 114.00 1200.01 99 303 1.100 10000.000 0.000 0.659
39 117.00 1200.01 86 289 1.100 10000.000 0.000 0.659
40 120.00 1200.01 94 335 1.100 10000.000 0.000 0.659
41 123.00 1200.01 111 319 1.100 10000.000 0.000 0.659
42 126.00 1200.01 93 383 1.100 10000.000 0.000 0.659
43 129.00 1200.01 92 355 1.100 10000.000 0.000 0.659
44 132.00 1200.01 88 385 1.100 10000.000 0.000 0.659
45 135.00 1200.01 108 374 1.100 10000.000 0.000 0.659
46 138.00 1200.01 88 369 1.100 10000.000 0.000 0.659
47 141.00 1200.01 96 384 1.100 10000.000 0.000 0.659
48 144.00 1200.01 90 392 1.100 10000.000 0.000 0.659
49 147.00 1200.01 95 379 1.100 10000.000 0.000 0.659
50 150.00 1200.01 112 353 1.100 10000.000 0.000 0.659
51 153.00 1200.01 115 365 1.100 10000.000 0.000 0.659
52 156.00 1200.01 121 351 1.100 10000.000 0.000 0.659
53 159.00 1200.01 110 307 1.100 10000.000 0.000 0.659
54 162.00 1200.01 135 314 1.100 10000.000 0.000 0.659
55 165.00 1200.01 104 313 1.100 10000.000 0.000 0.659
56 168.00 1200.01 115 286 1.100 10000.000 0.000 0.659
57 171.00 1200.01 102 284 1.100 10000.000 0.000 0.659
58 174.00 1200.01 117 297 1.100 10000.000 0.000 0.659
59 177.00 1200.01 130 247 1.100 10000.000 0.000 0.659
60 180.00 1200.01 115 239 1.100 10000.000 0.000 0.659
61 183.00 1200.01 115 232 1.100 10000.000 0.000 0.659
62 186.00 1200.01 91 267 1.100 10000.000 0.000 0.659
63 189.00 1200.01 99 268 1.100 10000.000 0.000 0.659
64 192.00 1200.01 120 239 1.100 10000.000 0.000 0.659
65 195.00 1200.01 93 255 1.100 10000.000 0.000 0.659
66 198.00 1200.01 112 260 1.100 10000.000 0.000 0.659
67 201.00 1200.01 130 266 1.100 10000.000 0.000 0.659
68 204.00 1200.01 117 301 1.100 10000.000 0.000 0.659
69 207.00 1200.01 105 306 1.100 10000.000 0.000 0.659
70 210.00 1200.01 94 306 1.100 10000.000 0.000 0.659
71 213.00 1200.01 100 302 1.100 10000.000 0.000 0.659
72 216.00 1200.01 88 341 1.100 10000.000 0.000 0.659
73 219.00 1200.01 100 284 1.100 10000.000 0.000 0.659
74 222.00 1200.01 93 378 1.100 10000.000 0.000 0.659
75 225.00 1200.01 79 366 1.100 10000.000 0.000 0.659
76 228.00 1200.01 89 339 1.100 10000.000 0.000 0.659
77 231.00 1200.01 76 397 1.100 10000.000 0.000 0.659
78 234.00 1200.01 89 375 1.100 10000.000 0.000 0.659
79 237.00 1200.01 97 407 1.100 10000.000 0.000 0.659
80 240.00 1200.01 100 407 1.100 10000.000 0.000 0.659
81 243.00 1200.01 88 376 1.100 10000.000 0.000 0.659
82 246.00 1200.01 96 373 1.100 10000.000 0.000 0.659
83 249.00 1200.01 105 354 1.100 10000.000 0.000 0.659
84 252.00 1200.01 85 386 1.100 10000.000 0.000 0.659
85 255.00 1200.01 98 373 1.100 10000.000 0.000 0.659
86 258.00 1200.01 101 320 1.100 10000.000 0.000 0.659
87 261.00 1200.01 108 327 1.100 10000.000 0.000 0.659
88 264.00 1200.01 114 323 1.100 10000.000 0.000 0.659
89 267.00 1200.01 113 300 1.100 10000.000 0.000 0.659
90 270.00 1200.01 123 285 1.100 10000.000 0.000 0.659
91 273.00 1200.01 101 265 1.100 10000.000 0.000 0.659
92 276.00 1200.01 106 278 1.100 10000.000 0.000 0.659
93 279.00 1200.01 95 257 1.100 10000.000 0.000 0.659
94 282.00 1200.01 116 256 1.100 10000.000 0.000 0.659
95 285.00 1200.01 104 233 1.100 10000.000 0.000 0.659
96 288.00 1200.01 117 234 1.100 10000.000 0.000 0.659
97 291.00 1200.01 115 252 1.100 10000.000 0.000 0.659
98 294.00 1200.01 101 262 1.100 10000.000 0.000 0.659
99 297.00 1200.01 101 257 1.100 10000.000 0.000 0.659
100 300.00 1200.01 113 272 1.100 10000.000 0.000 0.659
101 303.00 1200.01 99 245 1.100 10000.000 0.000 0.659
102 306.00 1200.01 124 286 1.100 10000.000 0.000 0.659
103 309.00 1200.01 115 282 1.100 10000.000 0.000 0.659
104 312.00 1200.01 114 292 1.100 10000.000 0.000 0.659
105 315.00 1200.01 111 298 1.100 10000.000 0.000 0.659
106 318.00 1200.01 106 323 1.100 10000.000 0.000 0.659
107 321.00 1200.01 95 364 1.100 10000.000 0.000 0.659
108 324.00 1200.01 109 354 1.100 10000.000 0.000 0.659
109 327.00 1200.01 117 338 1.100 10000.000 0.000 0.659
110 330.00 1200.01 90 368 1.100 10000.000 0.000 0.659
111 333.00 1200.01 95 376 1.100 10000.000 0.000 0.659
112 336.00 1200.01 110 377 1.100 10000.000 0.000 0.659
113 339.00 1200.01 111 403 1.100 10000.000 0.000 0.659
114 342.00 1200.01 88 338 1.100 10000.000 0.000 0.659
115 345.00 1200.01 86 391 1.100 10000.000 0.000 0.659
116 348.00 1200.01 90 344 1.100 10000.000 0.000 0.659
117 351.00 1200.01 99 358 1.100 10000.000 0.000 0.659
118 354.00 1200.01 99 360 1.100 10000.000 0.000 0.659
119 357.00 1200.01 78 341 1.100 10000.000 0.000 0.659
120 360.00 1200.01 90 313 1.100 10000.000 0.000 0.659
121 363.00 1200.01 87 323 1.100 10000.000 0.000 0.659
122 366.00 1200.01 104 310 1.100 10000.000 0.000 0.659
123 369.00 1200.01 101 286 1.100 10000.000 0.000 0.659
124 372.00 1200.01 101 294 1.100 10000.000 0.000 0.659
125 375.00 1200.01 80 299 1.100 10000.000 0.000 0.659
126 378.00 1200.01 93 275 1.100 10000.000 0.000 0.659
127 381.00 1200.01 89 248 1.100 10000.000 0.000 0.659
128 384.00 1200.01 80 257 1.100 10000.000 0.000 0.659
129 387.00 1200.01 89 265 1.100 10000.000 0.000 0.659
130 390.00 1200.01 102 247 1.100 10000.000 0.000 0.659
131 393.00 1200.01 107 231 1.100 10000.000 0.000 0.659
132 396.00 1200.01 123 281 1.100 10000.000 0.000 0.659
133 399.00 1200.01 117 286 1.100 10000.000 0.000 0.659
134 402.00 1200.01 119 268 1.100 10000.000 0.000 0.659
135 405.00 1200.01 119 271 1.100 10000.000 0.000 0.659
136 408.00 1200.01 111 286 1.100 10000.000 0.000 0.659
137 411.00 1200.01 120 339 1.100 10000.000 0.000 0.659
138 414.00 1200.01 119 335 1.100 10000.000 0.000 0.659
139 417.00 1200.01 113 301 1.100 10000.000 0.000 0.659
140 420.00 1200.01 113 325 1.100 10000.000 0.000 0.659
141 423.00 1200.01 111 320 1.100 10000.000 0.000 0.659
142 426.00 1200.01 105 377 1.100 10000.000 0.000 0.659
143 429.00 1200.01 97 363 1.100 10000.000 0.000 0.659
144 432.00 1200.01 91 327 1.100 10000.000 0.000 0.659
