# BinNR microsec tot-time (s)  O-Beam AUX Ampl(V) f(Hz) phase(deg) chi(pos)
0 0.00 1200.01 39 84 1.100 10000.000 0.000 0.494
1 3.00 1200.01 73 190 1.100 10000.000 0.000 0.494
2 6.00 1200.01 72 192 1.100 10000.000 0.000 0.494
3 9.00 1200.01 82 151 1.100 10000.000 0.000 0.494
4 12.00 1200.01 71 151 1.100 10000.000 0.000 0.494
5 15.00 1200.01 85 166 1.100 10000.000 0.000 0.494
6 18.00 1200.01 75 140 1.100 10000.000 0.000 0.494
7 21.00 1200.01 64 144 1.100 10000.000 0.000 0.494
8 24.00 1200.01 67 118 1.100 10000.000 0.000 0.494
9 27.00 1200.01 76 135 1.100 10000.000 0.000 0.494
10 30.00 1200.01 59 141 1.100 10000.000 0.000 0.494
11 33.00 1200.01 74 162 1.100 10000.000 0.000 0.494
12 36.00 1200.01 56 149 1.100 10000.000 0.000 0.494
13 39.00 1200.01 70 184 1.100 10000.000 0.000 0.494
14 42.00 1200.01 74 175 1.100 10000.000 0.000 0.494
15 45.00 1200.01 84 185 1.100 10000.000 0.000 0.494
16 48.00 1200.01 64 166 1.100 10000.000 0.000 0.494
17 51.00 1200.01 76 177 1.100 10000.000 0.000 0.494
18 54.00 1200.01 73 152 1.100 10000.000 0.000 0.494
19 57.00 1200.01 76 166 1.100 10000.000 0.000 0.494
20 60.00 1200.01 72 162 1.100 10000.000 0.000 0.494
21 63.00 1200.01 76 172 1.100 10000.000 0.000 0.494
22 66.00 1200.01 73 142 1.100 10000.000 0.000 0.494
23 69.00 1200.01 71 135 1.100 10000.000 0.000 0.494
24 72.00 1200.01 54 107 1.100 10000.000 0.000 0.494
25 75.00 1200.01 73 155 1.100 10000.000 0.000 0.494
26 78.00 1200.01 80 143 1.100 10000.000 0.000 0.494
27 81.00 1200.01 64 130 1.100 10000.000 0.000 0.494
28 84.00 1200.01 83 137 1.100 10000.000 0.000 0.494
29 87.00 1200.01 73 102 1.100 10000.000 0.000 0.494
30 90.00 1200.01 59 110 1.100 10000.000 0.000 0.494
31 93.00 1200.01 56 125 1.100 10000.000 0.000 0.494
32 96.00 1200.01 85 137 1.100 10000.000 0.000 0.494
33 99.00 1200.01 70 120 1.100 10000.000 0.000 0.494
34 102.00 1200.01 66 124 1.100 10000.000 0.000 0.494
35 105.00 1200.01 76 145 1.100 10000.000 0.000 0.494
36 108.00 1200.01 68 115 1.100 10000.000 0.000 0.494
37 111.00 1200.01 69 145 1.100 10000.000 0.000 0.494
38 114.00 1200.01 92 153 1.100 10000.000 0.000 0.494
39 117.00 1200.01 59 147 1.100 10000.000 0.000 0.494
40 120.00 1200.01 60 148 1.100 10000.000 0.000 0.494
41 123.00 1200.01 70 162 1.100 10000.000 0.000 0.494
42 126.00 1200.01 62 206 1.100 10000.000 0.000 0.494
43 129.00 1200.01 73 172 1.100 10000.000 0.000 0.494
44 132.00 1200.01 74 193 1.100 10000.000 0.000 0.494
45 135.00 1200.01 66 175 1.100 10000.000 0.000 0.494
46 138.00 1200.01 59 184 1.100 10000.000 0.000 0.494
47 141.00 1200.01 65 191 1.100 10000.000 0.000 0.494
48 144.00 1200.01 75 188 1.100 10000.000 0.000 0.494
49 147.00 1200.01 85 177 1.100 10000.000 0.000 0.494
50 150.00 1200.01 67 173 1.100 10000.000 0.000 0.494
51 153.00 1200.01 80 171 1.100 10000.000 0.000 0.494
52 156.00 1200.01 70 186 1.100 10000.000 0.000 0.494
53 159.00 1200.01 75 174 1.100 10000.000 0.000 0.494
54 162.00 1200.01 95 161 1.100 10000.000 0.000 0.494
55 165.00 1200.01 81 141 1.100 10000.000 0.000 0.494
56 168.00 1200.01 67 133 1.100 10000.000 0.000 0.494
57 171.00 1200.01 61 149 1.100 10000.000 0.000 0.494
58 174.00 1200.01 78 126 1.100 10000.000 0.000 0.494
59 177.00 1200.01 86 124 1.100 10000.000 0.000 0.494
60 180.00 1200.01 73 128 1.100 10000.000 0.000 0.494
61 183.00 1200.01 78 118 1.100 10000.000 0.000 0.494
62 186.00 1200.01 87 101 1.100 10000.000 0.000 0.494
63 189.00 1200.01 82 115 1.100 10000.000 0.000 0.494
64 192.00 1200.01 90 116 1.100 10000.000 0.000 0.494
65 195.00 1200.01 67 117 1.100 10000.000 0.000 0.494
66 198.00 1200.01 86 128 1.100 10000.000 0.000 0.494
67 201.00 1200.01 64 151 1.100 10000.000 0.000 0.494
68 204.00 1200.01 71 128 1.100 10000.000 0.000 0.494
69 207.00 1200.01 53 152 1.100 10000.000 0.000 0.494
70 210.00 1200.01 80 123 1.100 10000.000 0.000 0.494
71 213.00 1200.01 66 151 1.100 10000.000 0.000 0.494
72 216.00 1200.01 71 157 1.100 10000.000 0.000 0.494
73 219.00 1200.01 71 156 1.100 10000.000 0.000 0.494
74 222.00 1200.01 77 165 1.100 10000.000 0.000 0.494
75 225.00 1200.01 78 163 1.100 10000.000 0.000 0.494
76 228.00 1200.01 83 237 1.100 10000.000 0.000 0.494
77 231.00 1200.01 69 176 1.100 10000.000 0.000 0.494
78 234.00 1200.01 64 190 1.100 10000.000 0.000 0.494
79 237.00 1200.01 75 200 1.100 10000.000 0.000 0.494
80 240.00 1200.01 81 189 1.100 10000.000 0.000 0.494
81 243.00 1200.01 86 182 1.100 10000.000 0.000 0.494
82 246.00 1200.01 81 173 1.100 10000.000 0.000 0.494
83 249.00 1200.01 76 200 1.100 10000.000 0.000 0.494
84 252.00 1200.01 66 172 1.100 10000.000 0.000 0.494
85 255.00 1200.01 80 157 1.100 10000.000 0.000 0.494
86 258.00 1200.01 58 156 1.100 10000.000 0.000 0.494
87 261.00 1200.01 81 161 1.100 10000.000 0.000 0.494
88 264.00 1200.01 77 154 1.100 10000.000 0.000 0.494
89 267.00 1200.01 80 136 1.100 10000.000 0.000 0.494
90 270.00 1200.01 79 129 1.100 10000.000 0.000 0.494
91 273.00 1200.01 78 143 1.100 10000.000 0.000 0.494
92 276.00 1200.01 78 103 1.100 10000.000 0.000 0.494
93 279.00 1200.01 77 116 1.100 10000.000 0.000 0.494
94 282.00 1200.01 84 125 1.100 10000.000 0.000 0.494
95 285.00 1200.01 79 105 1.100 10000.000 0.000 0.494
96 288.00 1200.01 74 133 1.100 10000.000 0.000 0.494
97 291.00 1200.01 68 121 1.100 10000.000 0.000 0.494
98 294.00 1200.01 59 124 1.100 10000.000 0.000 0.494
99 297.00 1200.01 90 129 1.100 10000.000 0.000 0.494
100 300.00 1200.01 79 125 1.100 10000.000 0.000 0.494
101 303.00 1200.01 70 108 1.100 10000.000 0.000 0.494
102 306.00 1200.01 78 124 1.100 10000.000 0.000 0.494
103 309.00 1200.01 87 121 1.100 10000.000 0.000 0.494
104 312.00 1200.01 58 151 1.100 10000.000 0.000 0.494
105 315.00 1200.01 63 140 1.100 10000.000 0.000 0.494
106 318.00 1200.01 86 157 1.100 10000.000 0.000 0.494
107 321.00 1200.01 76 170 1.100 10000.000 0.000 0.494
108 324.00 1200.01 73 161 1.100 10000.000 0.000 0.494
109 327.00 1200.01 80 179 1.100 10000.000 0.000 0.494
110 330.00 1200.01 74 180 1.100 10000.000 0.000 0.494
111 333.00 1200.01 59 171 1.100 10000.000 0.000 0.494
112 336.00 1200.01 84 226 1.100 10000.000 0.000 0.494
113 339.00 1200.01 85 196 1.100 10000.000 0.000 0.494
114 342.00 1200.01 74 193 1.100 10000.000 0.000 0.494
115 345.00 1200.01 81 186 1.100 10000.000 0.000 0.494
116 348.00 1200.01 71 169 1.100 10000.000 0.000 0.494
117 351.00 1200.01 72 169 1.100 10000.000 0.000 0.494
118 354.00 1200.01 97 184 1.100 10000.000 0.000 0.494
119 357.00 1200.01 71 171 1.100 10000.000 0.000 0.494
120 360.00 1200.01 66 174 1.100 10000.000 0.000 0.494
121 363.00 1200.01 91 159 1.100 10000.000 0.000 0.494
122 366.00 1200.01 76 138 1.100 10000.000 0.000 0.494
123 369.00 1200.01 64 129 1.100 10000.000 0.000 0.494
124 372.00 1200.01 82 114 1.100 10000.000 0.000 0.494
125 375.00 1200.01 73 107 1.100 10000.000 0.000 0.494
126 378.00 1200.01 68 117 1.100 10000.000 0.000 0.494
127 381.00 1200.01 76 108 1.100 10000.000 0.000 0.494
128 384.00 1200.01 70 127 1.100 10000.000 0.000 0.494
129 387.00 1200.01 78 119 1.100 10000.000 0.000 0.494
130 390.00 1200.01 69 121 1.100 10000.000 0.000 0.494
131 393.00 1200.01 93 113 1.100 10000.000 0.000 0.494
132 396.00 1200.01 79 107 1.100 10000.000 0.000 0.494
133 399.00 1200.01 69 107 1.100 10000.000 0.000 0.494
134 402.00 1200.01 75 118 1.100 10000.000 0.000 0.494
135 405.00 1200.01 70 127 1.100 10000.000 0.000 0.494
136 408.00 1200.01 73 175 1.100 10000.000 0.000 0.494
137 411.00 1200.01 80 136 1.100 10000.000 0.000 0.494
138 414.00 1200.01 67 154 1.100 10000.000 0.000 0.494
139 417.00 1200.01 81 144 1.100 10000.000 0.000 0.494
140 420.00 1200.01 85 150 1.100 10000.000 0.000 0.494
141 423.00 1200.01 73 175 1.100 10000.000 0.000 0.494
142 426.00 1200.01 68 156 1.100 10000.000 0.000 0.494
143 429.00 1200.01 74 151 1.100 10000.000 0.000 0.494
144 432.00 1200.01 81 196 1.100 10000.000 0.000 0.494
