# BinNR microsec tot-time (s)  O-Beam AUX Ampl(V) f(Hz) phase(deg) chi(pos)
0 0.00 1200.00 82 271 2.000 10000.000 0.000 0.703
1 3.00 1200.00 152 571 2.000 10000.000 0.000 0.703
2 6.00 1200.00 156 587 2.000 10000.000 0.000 0.703
3 9.00 1200.00 133 551 2.000 10000.000 0.000 0.703
4 12.00 1200.00 157 518 2.000 10000.000 0.000 0.703
5 15.00 1200.00 121 446 2.000 10000.000 0.000 0.703
6 18.00 1200.00 118 427 2.000 10000.000 0.000 0.703
7 21.00 1200.00 134 410 2.000 10000.000 0.000 0.703
8 24.00 1200.00 105 368 2.000 10000.000 0.000 0.703
9 27.00 1200.00 109 385 2.000 10000.000 0.000 0.703
10 30.00 1200.00 102 314 2.000 10000.000 0.000 0.703
11 33.00 1200.00 118 309 2.000 10000.000 0.000 0.703
12 36.00 1200.00 112 264 2.000 10000.000 0.000 0.703
13 39.00 1200.00 99 294 2.000 10000.000 0.000 0.703
14 42.00 1200.00 99 291 2.000 10000.000 0.000 0.703
15 45.00 1200.00 120 277 2.000 10000.000 0.000 0.703
16 48.00 1200.00 108 286 2.000 10000.000 0.000 0.703
17 51.00 1200.00 85 313 2.000 10000.000 0.000 0.703
18 54.00 1200.00 111 296 2.000 10000.000 0.000 0.703
19 57.00 1200.00 91 270 2.000 10000.000 0.000 0.703
20 60.00 1200.00 117 310 2.000 10000.000 0.000 0.703
21 63.00 1200.00 117 322 2.000 10000.000 0.000 0.703
22 66.00 1200.00 130 353 2.000 10000.000 0.000 0.703
23 69.00 1200.00 119 366 2.000 10000.000 0.000 0.703
24 72.00 1200.00 144 424 2.000 10000.000 0.000 0.703
25 75.00 1200.00 151 427 2.000 10000.000 0.000 0.703
26 78.00 1200.00 182 493 2.000 10000.000 0.000 0.703
27 81.00 1200.00 172 533 2.000 10000.000 0.000 0.703
28 84.00 1200.00 170 499 2.000 10000.000 0.000 0.703
29 87.00 1200.00 167 523 2.000 10000.000 0.000 0.703
30 90.00 1200.00 161 512 2.000 10000.000 0.000 0.703
31 93.00 1200.00 178 538 2.000 10000.000 0.000 0.703
32 96.00 1200.00 159 549 2.000 10000.000 0.000 0.703
33 99.00 1200.00 156 570 2.000 10000.000 0.000 0.703
34 102.00 1200.00 158 608 2.000 10000.000 0.000 0.703
35 105.00 1200.00 153 556 2.000 10000.000 0.000 0.703
36 108.00 1200.00 128 548 2.000 10000.000 0.000 0.703
37 111.00 1200.00 127 527 2.000 10000.000 0.000 0.703
38 114.00 1200.00 133 515 2.000 10000.000 0.000 0.703
39 117.00 1200.00 123 505 2.000 10000.000 0.000 0.703
40 120.00 1200.00 132 473 2.000 10000.000 0.000 0.703
41 123.00 1200.00 122 418 2.000 10000.000 0.000 0.703
42 126.00 1200.00 141 405 2.000 10000.000 0.000 0.703
43 129.00 1200.00 125 384 2.000 10000.000 0.000 0.703
44 132.00 1200.00 118 351 2.000 10000.000 0.000 0.703
45 135.00 1200.00 94 288 2.000 10000.000 0.000 0.703
46 138.00 1200.00 112 261 2.000 10000.000 0.000 0.703
47 141.00 1200.00 110 258 2.000 10000.000 0.000 0.703
48 144.00 1200.00 123 296 2.000 10000.000 0.000 0.703
49 147.00 1200.00 113 273 2.000 10000.000 0.000 0.703
50 150.00 1200.00 104 270 2.000 10000.000 0.000 0.703
51 153.00 1200.00 102 279 2.000 10000.000 0.000 0.703
52 156.00 1200.00 107 269 2.000 10000.000 0.000 0.703
53 159.00 1200.00 113 262 2.000 10000.000 0.000 0.703
54 162.00 1200.00 136 321 2.000 10000.000 0.000 0.703
55 165.00 1200.00 123 317 2.000 10000.000 0.000 0.703
56 168.00 1200.00 121 373 2.000 10000.000 0.000 0.703
57 171.00 1200.00 117 390 2.000 10000.000 0.000 0.703
58 174.00 1200.00 137 415 2.000 10000.000 0.000 0.703
59 177.00 1200.00 134 486 2.000 10000.000 0.000 0.703
60 180.00 1200.00 146 515 2.000 10000.000 0.000 0.703
61 183.00 1200.00 150 498 2.000 10000.000 0.000 0.703
62 186.00 1200.00 174 565 2.000 10000.000 0.000 0.703
63 189.00 1200.00 171 594 2.000 10000.000 0.000 0.703
64 192.00 1200.00 147 583 2.000 10000.000 0.000 0.703
65 195.00 1200.00 166 573 2.000 10000.000 0.000 0.703
66 198.00 1200.00 174 656 2.000 10000.000 0.000 0.703
67 201.00 1200.00 169 530 2.000 10000.000 0.000 0.703
68 204.00 1200.00 170 551 2.000 10000.000 0.000 0.703
69 207.00 1200.00 166 574 2.000 10000.000 0.000 0.703
70 210.00 1200.00 134 574 2.000 10000.000 0.000 0.703
71 213.00 1200.00 142 505 2.000 10000.000 0.000 0.703
72 216.00 1200.00 133 472 2.000 10000.000 0.000 0.703
73 219.00 1200.00 133 500 2.000 10000.000 0.000 0.703
74 222.00 1200.00 146 431 2.000 10000.000 0.000 0.703
75 225.00 1200.00 125 400 2.000 10000.000 0.000 0.703
76 228.00 1200.00 116 408 2.000 10000.000 0.000 0.703
77 231.00 1200.00 124 359 2.000 10000.000 0.000 0.703
78 234.00 1200.00 105 318 2.000 10000.000 0.000 0.703
79 237.00 1200.00 100 296 2.000 10000.000 0.000 0.703
80 240.00 1200.00 106 285 2.000 10000.000 0.000 0.703
81 243.00 1200.00 115 260 2.000 10000.000 0.000 0.703
82 246.00 1200.00 120 263 2.000 10000.000 0.000 0.703
83 249.00 1200.00 125 262 2.000 10000.000 0.000 0.703
84 252.00 1200.00 98 270 2.000 10000.000 0.000 0.703
85 255.00 1200.00 104 271 2.000 10000.000 0.000 0.703
86 258.00 1200.00 94 286 2.000 10000.000 0.000 0.703
87 261.00 1200.00 108 326 2.000 10000.000 0.000 0.703
88 264.00 1200.00 118 302 2.000 10000.000 0.000 0.703
89 267.00 1200.00 112 354 2.000 10000.000 0.000 0.703
90 270.00 1200.00 121 367 2.000 10000.000 0.000 0.703
91 273.00 1200.00 128 380 2.000 10000.000 0.000 0.703
92 276.00 1200.00 153 415 2.000 10000.000 0.000 0.703
93 279.00 1200.00 160 462 2.000 10000.000 0.000 0.703
94 282.00 1200.00 178 501 2.000 10000.000 0.000 0.703
95 285.00 1200.00 163 516 2.000 10000.000 0.000 0.703
96 288.00 1200.00 180 529 2.000 10000.000 0.000 0.703
97 291.00 1200.00 162 564 2.000 10000.000 0.000 0.703
98 294.00 1200.00 170 577 2.000 10000.000 0.000 0.703
99 297.00 1200.00 159 585 2.000 10000.000 0.000 0.703
100 300.00 1200.00 176 570 2.000 10000.000 0.000 0.703
101 303.00 1200.00 132 499 2.000 10000.000 0.000 0.703
