# BinNR microsec tot-time (s)  O-Beam AUX Ampl(V) f(Hz) phase(deg) chi(pos)
0 0.00 1200.01 75 166 2.000 10000.000 0.000 -0.505
1 3.00 1200.01 191 294 2.000 10000.000 0.000 -0.505
2 6.00 1200.01 230 352 2.000 10000.000 0.000 -0.505
3 9.00 1200.01 217 354 2.000 10000.000 0.000 -0.505
4 12.00 1200.01 224 387 2.000 10000.000 0.000 -0.505
5 15.00 1200.01 205 427 2.000 10000.000 0.000 -0.505
6 18.00 1200.01 219 433 2.000 10000.000 0.000 -0.505
7 21.00 1200.01 225 495 2.000 10000.000 0.000 -0.505
8 24.00 1200.01 204 556 2.000 10000.000 0.000 -0.505
9 27.00 1200.01 224 567 2.000 10000.000 0.000 -0.505
10 30.00 1200.01 250 567 2.000 10000.000 0.000 -0.505
11 33.00 1200.01 248 602 2.000 10000.000 0.000 -0.505
12 36.00 1200.01 230 587 2.000 10000.000 0.000 -0.505
13 39.00 1200.01 235 583 2.000 10000.000 0.000 -0.505
14 42.00 1200.01 221 614 2.000 10000.000 0.000 -0.505
15 45.00 1200.01 256 585 2.000 10000.000 0.000 -0.505
16 48.00 1200.01 207 570 2.000 10000.000 0.000 -0.505
17 51.00 1200.01 219 583 2.000 10000.000 0.000 -0.505
18 54.00 1200.01 263 627 2.000 10000.000 0.000 -0.505
19 57.00 1200.01 221 586 2.000 10000.000 0.000 -0.505
20 60.00 1200.01 246 558 2.000 10000.000 0.000 -0.505
21 63.00 1200.01 232 603 2.000 10000.000 0.000 -0.505
22 66.00 1200.01 214 552 2.000 10000.000 0.000 -0.505
23 69.00 1200.01 214 553 2.000 10000.000 0.000 -0.505
24 72.00 1200.01 207 538 2.000 10000.000 0.000 -0.505
25 75.00 1200.01 206 496 2.000 10000.000 0.000 -0.505
26 78.00 1200.01 196 473 2.000 10000.000 0.000 -0.505
27 81.00 1200.01 213 457 2.000 10000.000 0.000 -0.505
28 84.00 1200.01 176 396 2.000 10000.000 0.000 -0.505
29 87.00 1200.01 199 342 2.000 10000.000 0.000 -0.505
30 90.00 1200.01 205 345 2.000 10000.000 0.000 -0.505
31 93.00 1200.01 198 331 2.000 10000.000 0.000 -0.505
32 96.00 1200.01 208 294 2.000 10000.000 0.000 -0.505
33 99.00 1200.01 183 303 2.000 10000.000 0.000 -0.505
34 102.00 1200.01 195 300 2.000 10000.000 0.000 -0.505
35 105.00 1200.01 178 325 2.000 10000.000 0.000 -0.505
36 108.00 1200.01 209 340 2.000 10000.000 0.000 -0.505
37 111.00 1200.01 225 337 2.000 10000.000 0.000 -0.505
38 114.00 1200.01 230 356 2.000 10000.000 0.000 -0.505
39 117.00 1200.01 247 409 2.000 10000.000 0.000 -0.505
40 120.00 1200.01 222 433 2.000 10000.000 0.000 -0.505
41 123.00 1200.01 220 473 2.000 10000.000 0.000 -0.505
42 126.00 1200.01 219 549 2.000 10000.000 0.000 -0.505
43 129.00 1200.01 212 535 2.000 10000.000 0.000 -0.505
44 132.00 1200.01 248 584 2.000 10000.000 0.000 -0.505
45 135.00 1200.01 254 604 2.000 10000.000 0.000 -0.505
46 138.00 1200.01 220 621 2.000 10000.000 0.000 -0.505
47 141.00 1200.01 220 631 2.000 10000.000 0.000 -0.505
48 144.00 1200.01 228 646 2.000 10000.000 0.000 -0.505
49 147.00 1200.01 241 597 2.000 10000.000 0.000 -0.505
50 150.00 1200.01 228 599 2.000 10000.000 0.000 -0.505
51 153.00 1200.01 236 653 2.000 10000.000 0.000 -0.505
52 156.00 1200.01 233 603 2.000 10000.000 0.000 -0.505
53 159.00 1200.01 226 599 2.000 10000.000 0.000 -0.505
54 162.00 1200.01 274 628 2.000 10000.000 0.000 -0.505
55 165.00 1200.01 244 589 2.000 10000.000 0.000 -0.505
56 168.00 1200.01 216 612 2.000 10000.000 0.000 -0.505
57 171.00 1200.01 224 531 2.000 10000.000 0.000 -0.505
58 174.00 1200.01 198 490 2.000 10000.000 0.000 -0.505
59 177.00 1200.01 236 464 2.000 10000.000 0.000 -0.505
60 180.00 1200.01 229 399 2.000 10000.000 0.000 -0.505
61 183.00 1200.01 212 423 2.000 10000.000 0.000 -0.505
62 186.00 1200.01 180 371 2.000 10000.000 0.000 -0.505
63 189.00 1200.01 210 362 2.000 10000.000 0.000 -0.505
64 192.00 1200.01 188 303 2.000 10000.000 0.000 -0.505
65 195.00 1200.01 192 303 2.000 10000.000 0.000 -0.505
66 198.00 1200.01 205 289 2.000 10000.000 0.000 -0.505
67 201.00 1200.01 206 321 2.000 10000.000 0.000 -0.505
68 204.00 1200.01 194 343 2.000 10000.000 0.000 -0.505
69 207.00 1200.01 175 335 2.000 10000.000 0.000 -0.505
70 210.00 1200.01 194 344 2.000 10000.000 0.000 -0.505
71 213.00 1200.01 209 333 2.000 10000.000 0.000 -0.505
72 216.00 1200.01 218 388 2.000 10000.000 0.000 -0.505
73 219.00 1200.01 235 397 2.000 10000.000 0.000 -0.505
74 222.00 1200.01 190 471 2.000 10000.000 0.000 -0.505
75 225.00 1200.01 224 502 2.000 10000.000 0.000 -0.505
76 228.00 1200.01 238 548 2.000 10000.000 0.000 -0.505
77 231.00 1200.01 239 509 2.000 10000.000 0.000 -0.505
78 234.00 1200.01 231 596 2.000 10000.000 0.000 -0.505
79 237.00 1200.01 238 602 2.000 10000.000 0.000 -0.505
80 240.00 1200.01 218 636 2.000 10000.000 0.000 -0.505
81 243.00 1200.01 249 636 2.000 10000.000 0.000 -0.505
82 246.00 1200.01 223 661 2.000 10000.000 0.000 -0.505
83 249.00 1200.01 224 595 2.000 10000.000 0.000 -0.505
84 252.00 1200.01 238 626 2.000 10000.000 0.000 -0.505
85 255.00 1200.01 213 647 2.000 10000.000 0.000 -0.505
86 258.00 1200.01 253 621 2.000 10000.000 0.000 -0.505
87 261.00 1200.01 224 612 2.000 10000.000 0.000 -0.505
88 264.00 1200.01 207 605 2.000 10000.000 0.000 -0.505
89 267.00 1200.01 243 591 2.000 10000.000 0.000 -0.505
90 270.00 1200.01 220 543 2.000 10000.000 0.000 -0.505
91 273.00 1200.01 209 514 2.000 10000.000 0.000 -0.505
92 276.00 1200.01 219 472 2.000 10000.000 0.000 -0.505
93 279.00 1200.01 216 396 2.000 10000.000 0.000 -0.505
94 282.00 1200.01 189 439 2.000 10000.000 0.000 -0.505
95 285.00 1200.01 225 376 2.000 10000.000 0.000 -0.505
96 288.00 1200.01 198 381 2.000 10000.000 0.000 -0.505
97 291.00 1200.01 185 308 2.000 10000.000 0.000 -0.505
98 294.00 1200.01 188 339 2.000 10000.000 0.000 -0.505
99 297.00 1200.01 169 300 2.000 10000.000 0.000 -0.505
100 300.00 1200.01 202 278 2.000 10000.000 0.000 -0.505
101 303.00 1200.01 168 272 2.000 10000.000 0.000 -0.505
