# BinNR microsec tot-time (s)  O-Beam AUX Ampl(V) f(Hz) phase(deg) chi(pos)
0 0.00 1200.00 109 219 2.000 10000.000 0.000 1.285
1 3.00 1200.00 226 464 2.000 10000.000 0.000 1.285
2 6.00 1200.00 206 497 2.000 10000.000 0.000 1.285
3 9.00 1200.00 202 476 2.000 10000.000 0.000 1.285
4 12.00 1200.00 255 545 2.000 10000.000 0.000 1.285
5 15.00 1200.00 257 618 2.000 10000.000 0.000 1.285
6 18.00 1200.00 239 612 2.000 10000.000 0.000 1.285
7 21.00 1200.00 211 647 2.000 10000.000 0.000 1.285
8 24.00 1200.00 230 591 2.000 10000.000 0.000 1.285
9 27.00 1200.00 215 677 2.000 10000.000 0.000 1.285
10 30.00 1200.00 213 653 2.000 10000.000 0.000 1.285
11 33.00 1200.00 212 625 2.000 10000.000 0.000 1.285
12 36.00 1200.00 204 671 2.000 10000.000 0.000 1.285
13 39.00 1200.00 196 618 2.000 10000.000 0.000 1.285
14 42.00 1200.00 219 646 2.000 10000.000 0.000 1.285
15 45.00 1200.00 208 609 2.000 10000.000 0.000 1.285
16 48.00 1200.00 218 648 2.000 10000.000 0.000 1.285
17 51.00 1200.00 207 613 2.000 10000.000 0.000 1.285
18 54.00 1200.00 235 628 2.000 10000.000 0.000 1.285
19 57.00 1200.00 228 635 2.000 10000.000 0.000 1.285
20 60.00 1200.00 208 660 2.000 10000.000 0.000 1.285
21 63.00 1200.00 242 683 2.000 10000.000 0.000 1.285
22 66.00 1200.00 217 657 2.000 10000.000 0.000 1.285
23 69.00 1200.00 234 597 2.000 10000.000 0.000 1.285
24 72.00 1200.00 231 612 2.000 10000.000 0.000 1.285
25 75.00 1200.00 203 616 2.000 10000.000 0.000 1.285
26 78.00 1200.00 253 576 2.000 10000.000 0.000 1.285
27 81.00 1200.00 206 588 2.000 10000.000 0.000 1.285
28 84.00 1200.00 217 467 2.000 10000.000 0.000 1.285
29 87.00 1200.00 224 488 2.000 10000.000 0.000 1.285
30 90.00 1200.00 256 468 2.000 10000.000 0.000 1.285
31 93.00 1200.00 212 443 2.000 10000.000 0.000 1.285
32 96.00 1200.00 202 449 2.000 10000.000 0.000 1.285
33 99.00 1200.00 219 387 2.000 10000.000 0.000 1.285
34 102.00 1200.00 216 457 2.000 10000.000 0.000 1.285
35 105.00 1200.00 237 432 2.000 10000.000 0.000 1.285
36 108.00 1200.00 227 528 2.000 10000.000 0.000 1.285
37 111.00 1200.00 214 499 2.000 10000.000 0.000 1.285
38 114.00 1200.00 215 528 2.000 10000.000 0.000 1.285
39 117.00 1200.00 240 555 2.000 10000.000 0.000 1.285
40 120.00 1200.00 209 590 2.000 10000.000 0.000 1.285
41 123.00 1200.00 202 581 2.000 10000.000 0.000 1.285
42 126.00 1200.00 222 680 2.000 10000.000 0.000 1.285
43 129.00 1200.00 211 642 2.000 10000.000 0.000 1.285
44 132.00 1200.00 237 628 2.000 10000.000 0.000 1.285
45 135.00 1200.00 188 626 2.000 10000.000 0.000 1.285
46 138.00 1200.00 233 627 2.000 10000.000 0.000 1.285
47 141.00 1200.00 233 594 2.000 10000.000 0.000 1.285
48 144.00 1200.00 223 597 2.000 10000.000 0.000 1.285
49 147.00 1200.00 210 661 2.000 10000.000 0.000 1.285
50 150.00 1200.00 221 593 2.000 10000.000 0.000 1.285
51 153.00 1200.00 202 615 2.000 10000.000 0.000 1.285
52 156.00 1200.00 230 610 2.000 10000.000 0.000 1.285
53 159.00 1200.00 229 621 2.000 10000.000 0.000 1.285
54 162.00 1200.00 209 624 2.000 10000.000 0.000 1.285
55 165.00 1200.00 227 637 2.000 10000.000 0.000 1.285
56 168.00 1200.00 213 635 2.000 10000.000 0.000 1.285
57 171.00 1200.00 223 596 2.000 10000.000 0.000 1.285
58 174.00 1200.00 248 584 2.000 10000.000 0.000 1.285
59 177.00 1200.00 215 582 2.000 10000.000 0.000 1.285
60 180.00 1200.00 218 532 2.000 10000.000 0.000 1.285
61 183.00 1200.00 200 544 2.000 10000.000 0.000 1.285
62 186.00 1200.00 199 487 2.000 10000.000 0.000 1.285
63 189.00 1200.00 218 485 2.000 10000.000 0.000 1.285
64 192.00 1200.00 205 447 2.000 10000.000 0.000 1.285
65 195.00 1200.00 215 436 2.000 10000.000 0.000 1.285
66 198.00 1200.00 209 412 2.000 10000.000 0.000 1.285
67 201.00 1200.00 212 453 2.000 10000.000 0.000 1.285
68 204.00 1200.00 234 409 2.000 10000.000 0.000 1.285
69 207.00 1200.00 237 447 2.000 10000.000 0.000 1.285
70 210.00 1200.00 234 483 2.000 10000.000 0.000 1.285
71 213.00 1200.00 238 495 2.000 10000.000 0.000 1.285
72 216.00 1200.00 208 538 2.000 10000.000 0.000 1.285
73 219.00 1200.00 226 545 2.000 10000.000 0.000 1.285
74 222.00 1200.00 236 638 2.000 10000.000 0.000 1.285
75 225.00 1200.00 212 633 2.000 10000.000 0.000 1.285
76 228.00 1200.00 225 700 2.000 10000.000 0.000 1.285
77 231.00 1200.00 202 612 2.000 10000.000 0.000 1.285
78 234.00 1200.00 211 598 2.000 10000.000 0.000 1.285
79 237.00 1200.00 208 662 2.000 10000.000 0.000 1.285
80 240.00 1200.00 204 647 2.000 10000.000 0.000 1.285
81 243.00 1200.00 182 610 2.000 10000.000 0.000 1.285
82 246.00 1200.00 193 666 2.000 10000.000 0.000 1.285
83 249.00 1200.00 212 615 2.000 10000.000 0.000 1.285
84 252.00 1200.00 231 601 2.000 10000.000 0.000 1.285
85 255.00 1200.00 214 601 2.000 10000.000 0.000 1.285
86 258.00 1200.00 263 619 2.000 10000.000 0.000 1.285
87 261.00 1200.00 197 616 2.000 10000.000 0.000 1.285
88 264.00 1200.00 203 677 2.000 10000.000 0.000 1.285
89 267.00 1200.00 206 608 2.000 10000.000 0.000 1.285
90 270.00 1200.00 226 633 2.000 10000.000 0.000 1.285
91 273.00 1200.00 225 595 2.000 10000.000 0.000 1.285
92 276.00 1200.00 229 571 2.000 10000.000 0.000 1.285
93 279.00 1200.00 222 562 2.000 10000.000 0.000 1.285
94 282.00 1200.00 207 582 2.000 10000.000 0.000 1.285
95 285.00 1200.00 186 493 2.000 10000.000 0.000 1.285
96 288.00 1200.00 202 512 2.000 10000.000 0.000 1.285
97 291.00 1200.00 217 462 2.000 10000.000 0.000 1.285
98 294.00 1200.00 220 427 2.000 10000.000 0.000 1.285
99 297.00 1200.00 223 410 2.000 10000.000 0.000 1.285
100 300.00 1200.00 190 426 2.000 10000.000 0.000 1.285
101 303.00 1200.00 165 394 2.000 10000.000 0.000 1.285
