# BinNR microsec tot-time (s)  O-Beam AUX Ampl(V) f(Hz) phase(deg) chi(pos)
0 0.00 1200.00 153 426 1.100 10000.000 0.000 -0.330
1 3.00 1200.00 339 843 1.100 10000.000 0.000 -0.330
2 6.00 1200.00 330 810 1.100 10000.000 0.000 -0.330
3 9.00 1200.00 340 817 1.100 10000.000 0.000 -0.330
4 12.00 1200.00 348 821 1.100 10000.000 0.000 -0.330
5 15.00 1200.00 327 798 1.100 10000.000 0.000 -0.330
6 18.00 1200.00 328 768 1.100 10000.000 0.000 -0.330
7 21.00 1200.00 352 765 1.100 10000.000 0.000 -0.330
8 24.00 1200.00 328 737 1.100 10000.000 0.000 -0.330
9 27.00 1200.00 315 721 1.100 10000.000 0.000 -0.330
10 30.00 1200.00 334 756 1.100 10000.000 0.000 -0.330
11 33.00 1200.00 304 774 1.100 10000.000 0.000 -0.330
12 36.00 1200.00 346 761 1.100 10000.000 0.000 -0.330
13 39.00 1200.00 326 711 1.100 10000.000 0.000 -0.330
14 42.00 1200.00 324 778 1.100 10000.000 0.000 -0.330
15 45.00 1200.00 287 731 1.100 10000.000 0.000 -0.330
16 48.00 1200.00 339 760 1.100 10000.000 0.000 -0.330
17 51.00 1200.00 319 793 1.100 10000.000 0.000 -0.330
18 54.00 1200.00 322 777 1.100 10000.000 0.000 -0.330
19 57.00 1200.00 357 732 1.100 10000.000 0.000 -0.330
20 60.00 1200.00 361 758 1.100 10000.000 0.000 -0.330
21 63.00 1200.00 318 737 1.100 10000.000 0.000 -0.330
22 66.00 1200.00 368 799 1.100 10000.000 0.000 -0.330
23 69.00 1200.00 336 759 1.100 10000.000 0.000 -0.330
24 72.00 1200.00 358 814 1.100 10000.000 0.000 -0.330
25 75.00 1200.00 316 850 1.100 10000.000 0.000 -0.330
26 78.00 1200.00 377 907 1.100 10000.000 0.000 -0.330
27 81.00 1200.00 370 876 1.100 10000.000 0.000 -0.330
28 84.00 1200.00 342 896 1.100 10000.000 0.000 -0.330
29 87.00 1200.00 341 891 1.100 10000.000 0.000 -0.330
30 90.00 1200.00 363 949 1.100 10000.000 0.000 -0.330
31 93.00 1200.00 361 828 1.100 10000.000 0.000 -0.330
32 96.00 1200.00 355 793 1.100 10000.000 0.000 -0.330
33 99.00 1200.00 329 887 1.100 10000.000 0.000 -0.330
34 102.00 1200.00 342 849 1.100 10000.000 0.000 -0.330
35 105.00 1200.00 356 868 1.100 10000.000 0.000 -0.330
36 108.00 1200.00 330 836 1.100 10000.000 0.000 -0.330
37 111.00 1200.00 343 844 1.100 10000.000 0.000 -0.330
38 114.00 1200.00 309 856 1.100 10000.000 0.000 -0.330
39 117.00 1200.00 346 760 1.100 10000.000 0.000 -0.330
40 120.00 1200.00 318 780 1.100 10000.000 0.000 -0.330
41 123.00 1200.00 336 778 1.100 10000.000 0.000 -0.330
42 126.00 1200.00 321 732 1.100 10000.000 0.000 -0.330
43 129.00 1200.00 329 733 1.100 10000.000 0.000 -0.330
44 132.00 1200.00 344 705 1.100 10000.000 0.000 -0.330
45 135.00 1200.00 336 690 1.100 10000.000 0.000 -0.330
46 138.00 1200.00 334 658 1.100 10000.000 0.000 -0.330
47 141.00 1200.00 325 736 1.100 10000.000 0.000 -0.330
48 144.00 1200.00 309 720 1.100 10000.000 0.000 -0.330
49 147.00 1200.00 314 742 1.100 10000.000 0.000 -0.330
50 150.00 1200.00 321 733 1.100 10000.000 0.000 -0.330
51 153.00 1200.00 329 724 1.100 10000.000 0.000 -0.330
52 156.00 1200.00 348 743 1.100 10000.000 0.000 -0.330
53 159.00 1200.00 333 795 1.100 10000.000 0.000 -0.330
54 162.00 1200.00 300 768 1.100 10000.000 0.000 -0.330
55 165.00 1200.00 367 819 1.100 10000.000 0.000 -0.330
56 168.00 1200.00 344 823 1.100 10000.000 0.000 -0.330
57 171.00 1200.00 335 846 1.100 10000.000 0.000 -0.330
58 174.00 1200.00 350 796 1.100 10000.000 0.000 -0.330
59 177.00 1200.00 337 830 1.100 10000.000 0.000 -0.330
60 180.00 1200.00 353 881 1.100 10000.000 0.000 -0.330
61 183.00 1200.00 342 839 1.100 10000.000 0.000 -0.330
62 186.00 1200.00 340 901 1.100 10000.000 0.000 -0.330
63 189.00 1200.00 341 864 1.100 10000.000 0.000 -0.330
64 192.00 1200.00 384 852 1.100 10000.000 0.000 -0.330
65 195.00 1200.00 343 877 1.100 10000.000 0.000 -0.330
66 198.00 1200.00 348 862 1.100 10000.000 0.000 -0.330
67 201.00 1200.00 315 801 1.100 10000.000 0.000 -0.330
68 204.00 1200.00 337 811 1.100 10000.000 0.000 -0.330
69 207.00 1200.00 351 835 1.100 10000.000 0.000 -0.330
70 210.00 1200.00 350 842 1.100 10000.000 0.000 -0.330
71 213.00 1200.00 323 851 1.100 10000.000 0.000 -0.330
72 216.00 1200.00 336 812 1.100 10000.000 0.000 -0.330
73 219.00 1200.00 315 772 1.100 10000.000 0.000 -0.330
74 222.00 1200.00 309 738 1.100 10000.000 0.000 -0.330
75 225.00 1200.00 321 744 1.100 10000.000 0.000 -0.330
76 228.00 1200.00 318 778 1.100 10000.000 0.000 -0.330
77 231.00 1200.00 340 751 1.100 10000.000 0.000 -0.330
78 234.00 1200.00 302 724 1.100 10000.000 0.000 -0.330
79 237.00 1200.00 299 741 1.100 10000.000 0.000 -0.330
80 240.00 1200.00 325 716 1.100 10000.000 0.000 -0.330
81 243.00 1200.00 330 696 1.100 10000.000 0.000 -0.330
82 246.00 1200.00 319 718 1.100 10000.000 0.000 -0.330
83 249.00 1200.00 302 704 1.100 10000.000 0.000 -0.330
84 252.00 1200.00 350 713 1.100 10000.000 0.000 -0.330
85 255.00 1200.00 341 755 1.100 10000.000 0.000 -0.330
86 258.00 1200.00 327 764 1.100 10000.000 0.000 -0.330
87 261.00 1200.00 303 721 1.100 10000.000 0.000 -0.330
88 264.00 1200.00 308 767 1.100 10000.000 0.000 -0.330
89 267.00 1200.00 335 766 1.100 10000.000 0.000 -0.330
90 270.00 1200.00 355 815 1.100 10000.000 0.000 -0.330
91 273.00 1200.00 351 819 1.100 10000.000 0.000 -0.330
92 276.00 1200.00 356 869 1.100 10000.000 0.000 -0.330
93 279.00 1200.00 355 866 1.100 10000.000 0.000 -0.330
94 282.00 1200.00 377 889 1.100 10000.000 0.000 -0.330
95 285.00 1200.00 325 843 1.100 10000.000 0.000 -0.330
96 288.00 1200.00 369 865 1.100 10000.000 0.000 -0.330
97 291.00 1200.00 315 897 1.100 10000.000 0.000 -0.330
98 294.00 1200.00 325 866 1.100 10000.000 0.000 -0.330
99 297.00 1200.00 347 868 1.100 10000.000 0.000 -0.330
100 300.00 1200.00 320 899 1.100 10000.000 0.000 -0.330
101 303.00 1200.00 353 846 1.100 10000.000 0.000 -0.330
102 306.00 1200.00 357 834 1.100 10000.000 0.000 -0.330
103 309.00 1200.00 318 811 1.100 10000.000 0.000 -0.330
104 312.00 1200.00 315 856 1.100 10000.000 0.000 -0.330
105 315.00 1200.00 317 851 1.100 10000.000 0.000 -0.330
106 318.00 1200.00 351 787 1.100 10000.000 0.000 -0.330
107 321.00 1200.00 342 746 1.100 10000.000 0.000 -0.330
108 324.00 1200.00 314 764 1.100 10000.000 0.000 -0.330
109 327.00 1200.00 305 717 1.100 10000.000 0.000 -0.330
110 330.00 1200.00 323 723 1.100 10000.000 0.000 -0.330
111 333.00 1200.00 337 711 1.100 10000.000 0.000 -0.330
112 336.00 1200.00 307 751 1.100 10000.000 0.000 -0.330
113 339.00 1200.00 334 759 1.100 10000.000 0.000 -0.330
114 342.00 1200.00 299 716 1.100 10000.000 0.000 -0.330
115 345.00 1200.00 325 698 1.100 10000.000 0.000 -0.330
116 348.00 1200.00 337 756 1.100 10000.000 0.000 -0.330
117 351.00 1200.00 301 734 1.100 10000.000 0.000 -0.330
118 354.00 1200.00 348 766 1.100 10000.000 0.000 -0.330
119 357.00 1200.00 288 750 1.100 10000.000 0.000 -0.330
120 360.00 1200.00 354 755 1.100 10000.000 0.000 -0.330
121 363.00 1200.00 337 723 1.100 10000.000 0.000 -0.330
122 366.00 1200.00 346 818 1.100 10000.000 0.000 -0.330
123 369.00 1200.00 329 784 1.100 10000.000 0.000 -0.330
124 372.00 1200.00 327 819 1.100 10000.000 0.000 -0.330
125 375.00 1200.00 315 868 1.100 10000.000 0.000 -0.330
126 378.00 1200.00 350 862 1.100 10000.000 0.000 -0.330
127 381.00 1200.00 327 854 1.100 10000.000 0.000 -0.330
128 384.00 1200.00 353 885 1.100 10000.000 0.000 -0.330
129 387.00 1200.00 359 870 1.100 10000.000 0.000 -0.330
130 390.00 1200.00 351 959 1.100 10000.000 0.000 -0.330
131 393.00 1200.00 357 895 1.100 10000.000 0.000 -0.330
132 396.00 1200.00 360 941 1.100 10000.000 0.000 -0.330
133 399.00 1200.00 340 859 1.100 10000.000 0.000 -0.330
134 402.00 1200.00 377 856 1.100 10000.000 0.000 -0.330
