# BinNR microsec tot-time (s)  O-Beam AUX Ampl(V) f(Hz) phase(deg) chi(pos)
0 0.00 1200.02 141 311 1.100 10000.000 0.000 -0.165
1 3.00 1200.02 300 606 1.100 10000.000 0.000 -0.165
2 6.00 1200.02 288 579 1.100 10000.000 0.000 -0.165
3 9.00 1200.02 292 604 1.100 10000.000 0.000 -0.165
4 12.00 1200.02 283 590 1.100 10000.000 0.000 -0.165
5 15.00 1200.02 272 541 1.100 10000.000 0.000 -0.165
6 18.00 1200.02 265 534 1.100 10000.000 0.000 -0.165
7 21.00 1200.02 287 515 1.100 10000.000 0.000 -0.165
8 24.00 1200.02 265 555 1.100 10000.000 0.000 -0.165
9 27.00 1200.02 235 516 1.100 10000.000 0.000 -0.165
10 30.00 1200.02 253 502 1.100 10000.000 0.000 -0.165
11 33.00 1200.02 254 488 1.100 10000.000 0.000 -0.165
12 36.00 1200.02 260 526 1.100 10000.000 0.000 -0.165
13 39.00 1200.02 241 477 1.100 10000.000 0.000 -0.165
14 42.00 1200.02 267 479 1.100 10000.000 0.000 -0.165
15 45.00 1200.02 234 480 1.100 10000.000 0.000 -0.165
16 48.00 1200.02 239 524 1.100 10000.000 0.000 -0.165
17 51.00 1200.02 271 535 1.100 10000.000 0.000 -0.165
18 54.00 1200.02 264 503 1.100 10000.000 0.000 -0.165
19 57.00 1200.02 249 509 1.100 10000.000 0.000 -0.165
20 60.00 1200.02 304 499 1.100 10000.000 0.000 -0.165
21 63.00 1200.02 267 558 1.100 10000.000 0.000 -0.165
22 66.00 1200.02 281 611 1.100 10000.000 0.000 -0.165
23 69.00 1200.02 292 598 1.100 10000.000 0.000 -0.165
24 72.00 1200.02 286 571 1.100 10000.000 0.000 -0.165
25 75.00 1200.02 269 606 1.100 10000.000 0.000 -0.165
26 78.00 1200.02 284 596 1.100 10000.000 0.000 -0.165
27 81.00 1200.02 287 609 1.100 10000.000 0.000 -0.165
28 84.00 1200.02 293 674 1.100 10000.000 0.000 -0.165
29 87.00 1200.02 312 636 1.100 10000.000 0.000 -0.165
30 90.00 1200.02 293 641 1.100 10000.000 0.000 -0.165
31 93.00 1200.02 293 627 1.100 10000.000 0.000 -0.165
32 96.00 1200.02 296 652 1.100 10000.000 0.000 -0.165
33 99.00 1200.02 284 623 1.100 10000.000 0.000 -0.165
34 102.00 1200.02 258 657 1.100 10000.000 0.000 -0.165
35 105.00 1200.02 273 637 1.100 10000.000 0.000 -0.165
36 108.00 1200.02 277 607 1.100 10000.000 0.000 -0.165
37 111.00 1200.02 259 577 1.100 10000.000 0.000 -0.165
38 114.00 1200.02 295 579 1.100 10000.000 0.000 -0.165
39 117.00 1200.02 278 537 1.100 10000.000 0.000 -0.165
40 120.00 1200.02 261 542 1.100 10000.000 0.000 -0.165
41 123.00 1200.02 255 491 1.100 10000.000 0.000 -0.165
42 126.00 1200.02 251 506 1.100 10000.000 0.000 -0.165
43 129.00 1200.02 259 497 1.100 10000.000 0.000 -0.165
44 132.00 1200.02 239 503 1.100 10000.000 0.000 -0.165
45 135.00 1200.02 231 474 1.100 10000.000 0.000 -0.165
46 138.00 1200.02 249 495 1.100 10000.000 0.000 -0.165
47 141.00 1200.02 273 470 1.100 10000.000 0.000 -0.165
48 144.00 1200.02 239 513 1.100 10000.000 0.000 -0.165
49 147.00 1200.02 233 448 1.100 10000.000 0.000 -0.165
50 150.00 1200.02 235 507 1.100 10000.000 0.000 -0.165
51 153.00 1200.02 274 481 1.100 10000.000 0.000 -0.165
52 156.00 1200.02 295 522 1.100 10000.000 0.000 -0.165
53 159.00 1200.02 268 506 1.100 10000.000 0.000 -0.165
54 162.00 1200.02 261 516 1.100 10000.000 0.000 -0.165
55 165.00 1200.02 262 503 1.100 10000.000 0.000 -0.165
56 168.00 1200.02 289 540 1.100 10000.000 0.000 -0.165
57 171.00 1200.02 273 589 1.100 10000.000 0.000 -0.165
58 174.00 1200.02 316 624 1.100 10000.000 0.000 -0.165
59 177.00 1200.02 290 602 1.100 10000.000 0.000 -0.165
60 180.00 1200.02 282 617 1.100 10000.000 0.000 -0.165
61 183.00 1200.02 301 668 1.100 10000.000 0.000 -0.165
62 186.00 1200.02 312 671 1.100 10000.000 0.000 -0.165
63 189.00 1200.02 284 621 1.100 10000.000 0.000 -0.165
64 192.00 1200.02 308 694 1.100 10000.000 0.000 -0.165
65 195.00 1200.02 286 671 1.100 10000.000 0.000 -0.165
66 198.00 1200.02 286 680 1.100 10000.000 0.000 -0.165
67 201.00 1200.02 255 653 1.100 10000.000 0.000 -0.165
68 204.00 1200.02 292 598 1.100 10000.000 0.000 -0.165
69 207.00 1200.02 282 606 1.100 10000.000 0.000 -0.165
70 210.00 1200.02 304 613 1.100 10000.000 0.000 -0.165
71 213.00 1200.02 272 554 1.100 10000.000 0.000 -0.165
72 216.00 1200.02 273 572 1.100 10000.000 0.000 -0.165
73 219.00 1200.02 281 557 1.100 10000.000 0.000 -0.165
74 222.00 1200.02 273 552 1.100 10000.000 0.000 -0.165
75 225.00 1200.02 235 524 1.100 10000.000 0.000 -0.165
76 228.00 1200.02 252 497 1.100 10000.000 0.000 -0.165
77 231.00 1200.02 250 495 1.100 10000.000 0.000 -0.165
78 234.00 1200.02 216 478 1.100 10000.000 0.000 -0.165
79 237.00 1200.02 231 470 1.100 10000.000 0.000 -0.165
80 240.00 1200.02 250 503 1.100 10000.000 0.000 -0.165
81 243.00 1200.02 250 481 1.100 10000.000 0.000 -0.165
82 246.00 1200.02 269 476 1.100 10000.000 0.000 -0.165
83 249.00 1200.02 262 486 1.100 10000.000 0.000 -0.165
84 252.00 1200.02 257 475 1.100 10000.000 0.000 -0.165
85 255.00 1200.02 270 504 1.100 10000.000 0.000 -0.165
86 258.00 1200.02 263 552 1.100 10000.000 0.000 -0.165
87 261.00 1200.02 269 534 1.100 10000.000 0.000 -0.165
88 264.00 1200.02 263 551 1.100 10000.000 0.000 -0.165
89 267.00 1200.02 260 572 1.100 10000.000 0.000 -0.165
90 270.00 1200.02 276 596 1.100 10000.000 0.000 -0.165
91 273.00 1200.02 275 632 1.100 10000.000 0.000 -0.165
92 276.00 1200.02 300 666 1.100 10000.000 0.000 -0.165
93 279.00 1200.02 286 626 1.100 10000.000 0.000 -0.165
94 282.00 1200.02 332 662 1.100 10000.000 0.000 -0.165
95 285.00 1200.02 285 685 1.100 10000.000 0.000 -0.165
96 288.00 1200.02 315 729 1.100 10000.000 0.000 -0.165
97 291.00 1200.02 274 627 1.100 10000.000 0.000 -0.165
98 294.00 1200.02 299 634 1.100 10000.000 0.000 -0.165
99 297.00 1200.02 273 686 1.100 10000.000 0.000 -0.165
100 300.00 1200.02 277 665 1.100 10000.000 0.000 -0.165
101 303.00 1200.02 253 630 1.100 10000.000 0.000 -0.165
102 306.00 1200.02 284 628 1.100 10000.000 0.000 -0.165
103 309.00 1200.02 274 624 1.100 10000.000 0.000 -0.165
104 312.00 1200.02 309 562 1.100 10000.000 0.000 -0.165
105 315.00 1200.02 272 583 1.100 10000.000 0.000 -0.165
106 318.00 1200.02 275 544 1.100 10000.000 0.000 -0.165
107 321.00 1200.02 267 505 1.100 10000.000 0.000 -0.165
108 324.00 1200.02 281 523 1.100 10000.000 0.000 -0.165
109 327.00 1200.02 255 521 1.100 10000.000 0.000 -0.165
110 330.00 1200.02 272 505 1.100 10000.000 0.000 -0.165
111 333.00 1200.02 272 464 1.100 10000.000 0.000 -0.165
112 336.00 1200.02 277 501 1.100 10000.000 0.000 -0.165
113 339.00 1200.02 219 498 1.100 10000.000 0.000 -0.165
114 342.00 1200.02 270 497 1.100 10000.000 0.000 -0.165
115 345.00 1200.02 228 481 1.100 10000.000 0.000 -0.165
116 348.00 1200.02 261 489 1.100 10000.000 0.000 -0.165
117 351.00 1200.02 284 471 1.100 10000.000 0.000 -0.165
118 354.00 1200.02 261 479 1.100 10000.000 0.000 -0.165
119 357.00 1200.02 265 532 1.100 10000.000 0.000 -0.165
120 360.00 1200.02 253 501 1.100 10000.000 0.000 -0.165
121 363.00 1200.02 245 533 1.100 10000.000 0.000 -0.165
122 366.00 1200.02 290 564 1.100 10000.000 0.000 -0.165
123 369.00 1200.02 255 596 1.100 10000.000 0.000 -0.165
124 372.00 1200.02 295 620 1.100 10000.000 0.000 -0.165
125 375.00 1200.02 278 622 1.100 10000.000 0.000 -0.165
126 378.00 1200.02 307 590 1.100 10000.000 0.000 -0.165
127 381.00 1200.02 261 591 1.100 10000.000 0.000 -0.165
128 384.00 1200.02 290 624 1.100 10000.000 0.000 -0.165
129 387.00 1200.02 279 619 1.100 10000.000 0.000 -0.165
130 390.00 1200.02 301 672 1.100 10000.000 0.000 -0.165
131 393.00 1200.02 294 630 1.100 10000.000 0.000 -0.165
132 396.00 1200.02 317 695 1.100 10000.000 0.000 -0.165
133 399.00 1200.02 277 654 1.100 10000.000 0.000 -0.165
134 402.00 1200.02 298 637 1.100 10000.000 0.000 -0.165
