# BinNR microsec tot-time (s)  O-Beam AUX Ampl(V) f(Hz) phase(deg) chi(pos)
0 0.00 1500.03 153 267 0.370 10000.000 0.000 -0.011
1 3.00 1500.03 269 564 0.370 10000.000 0.000 -0.011
2 6.00 1500.03 296 537 0.370 10000.000 0.000 -0.011
3 9.00 1500.03 286 537 0.370 10000.000 0.000 -0.011
4 12.00 1500.03 330 636 0.370 10000.000 0.000 -0.011
5 15.00 1500.03 292 542 0.370 10000.000 0.000 -0.011
6 18.00 1500.03 329 560 0.370 10000.000 0.000 -0.011
7 21.00 1500.03 321 567 0.370 10000.000 0.000 -0.011
8 24.00 1500.03 320 578 0.370 10000.000 0.000 -0.011
9 27.00 1500.03 329 628 0.370 10000.000 0.000 -0.011
10 30.00 1500.03 330 631 0.370 10000.000 0.000 -0.011
11 33.00 1500.03 325 683 0.370 10000.000 0.000 -0.011
12 36.00 1500.03 318 619 0.370 10000.000 0.000 -0.011
13 39.00 1500.03 336 623 0.370 10000.000 0.000 -0.011
14 42.00 1500.03 308 597 0.370 10000.000 0.000 -0.011
15 45.00 1500.03 306 576 0.370 10000.000 0.000 -0.011
16 48.00 1500.03 327 596 0.370 10000.000 0.000 -0.011
17 51.00 1500.03 304 582 0.370 10000.000 0.000 -0.011
18 54.00 1500.03 319 583 0.370 10000.000 0.000 -0.011
19 57.00 1500.03 311 582 0.370 10000.000 0.000 -0.011
20 60.00 1500.03 304 568 0.370 10000.000 0.000 -0.011
21 63.00 1500.03 282 528 0.370 10000.000 0.000 -0.011
22 66.00 1500.03 284 577 0.370 10000.000 0.000 -0.011
23 69.00 1500.03 287 564 0.370 10000.000 0.000 -0.011
24 72.00 1500.03 324 610 0.370 10000.000 0.000 -0.011
25 75.00 1500.03 295 614 0.370 10000.000 0.000 -0.011
26 78.00 1500.03 284 685 0.370 10000.000 0.000 -0.011
27 81.00 1500.03 319 590 0.370 10000.000 0.000 -0.011
28 84.00 1500.03 289 640 0.370 10000.000 0.000 -0.011
29 87.00 1500.03 292 642 0.370 10000.000 0.000 -0.011
30 90.00 1500.03 294 716 0.370 10000.000 0.000 -0.011
31 93.00 1500.03 273 723 0.370 10000.000 0.000 -0.011
32 96.00 1500.03 298 720 0.370 10000.000 0.000 -0.011
33 99.00 1500.03 292 680 0.370 10000.000 0.000 -0.011
34 102.00 1500.03 277 740 0.370 10000.000 0.000 -0.011
35 105.00 1500.03 286 676 0.370 10000.000 0.000 -0.011
36 108.00 1500.03 331 676 0.370 10000.000 0.000 -0.011
37 111.00 1500.03 320 741 0.370 10000.000 0.000 -0.011
38 114.00 1500.03 331 668 0.370 10000.000 0.000 -0.011
39 117.00 1500.03 304 656 0.370 10000.000 0.000 -0.011
40 120.00 1500.03 295 637 0.370 10000.000 0.000 -0.011
41 123.00 1500.03 348 601 0.370 10000.000 0.000 -0.011
42 126.00 1500.03 327 538 0.370 10000.000 0.000 -0.011
43 129.00 1500.03 323 587 0.370 10000.000 0.000 -0.011
44 132.00 1500.03 284 534 0.370 10000.000 0.000 -0.011
45 135.00 1500.03 340 525 0.370 10000.000 0.000 -0.011
46 138.00 1500.03 339 536 0.370 10000.000 0.000 -0.011
47 141.00 1500.03 308 542 0.370 10000.000 0.000 -0.011
48 144.00 1500.03 308 504 0.370 10000.000 0.000 -0.011
49 147.00 1500.03 307 504 0.370 10000.000 0.000 -0.011
50 150.00 1500.03 287 557 0.370 10000.000 0.000 -0.011
51 153.00 1500.03 308 526 0.370 10000.000 0.000 -0.011
52 156.00 1500.03 310 564 0.370 10000.000 0.000 -0.011
53 159.00 1500.03 338 548 0.370 10000.000 0.000 -0.011
54 162.00 1500.03 299 598 0.370 10000.000 0.000 -0.011
55 165.00 1500.03 287 522 0.370 10000.000 0.000 -0.011
56 168.00 1500.03 301 546 0.370 10000.000 0.000 -0.011
57 171.00 1500.03 297 595 0.370 10000.000 0.000 -0.011
58 174.00 1500.03 305 659 0.370 10000.000 0.000 -0.011
59 177.00 1500.03 276 597 0.370 10000.000 0.000 -0.011
60 180.00 1500.03 299 645 0.370 10000.000 0.000 -0.011
61 183.00 1500.03 300 651 0.370 10000.000 0.000 -0.011
62 186.00 1500.03 269 728 0.370 10000.000 0.000 -0.011
63 189.00 1500.03 288 716 0.370 10000.000 0.000 -0.011
64 192.00 1500.03 291 678 0.370 10000.000 0.000 -0.011
65 195.00 1500.03 290 725 0.370 10000.000 0.000 -0.011
66 198.00 1500.03 307 697 0.370 10000.000 0.000 -0.011
67 201.00 1500.03 303 696 0.370 10000.000 0.000 -0.011
68 204.00 1500.03 306 688 0.370 10000.000 0.000 -0.011
69 207.00 1500.03 335 639 0.370 10000.000 0.000 -0.011
70 210.00 1500.03 268 688 0.370 10000.000 0.000 -0.011
71 213.00 1500.03 347 647 0.370 10000.000 0.000 -0.011
72 216.00 1500.03 320 683 0.370 10000.000 0.000 -0.011
73 219.00 1500.03 314 641 0.370 10000.000 0.000 -0.011
74 222.00 1500.03 323 620 0.370 10000.000 0.000 -0.011
75 225.00 1500.03 332 604 0.370 10000.000 0.000 -0.011
76 228.00 1500.03 310 653 0.370 10000.000 0.000 -0.011
77 231.00 1500.03 340 603 0.370 10000.000 0.000 -0.011
78 234.00 1500.03 285 529 0.370 10000.000 0.000 -0.011
79 237.00 1500.03 356 533 0.370 10000.000 0.000 -0.011
80 240.00 1500.03 328 505 0.370 10000.000 0.000 -0.011
81 243.00 1500.03 352 544 0.370 10000.000 0.000 -0.011
82 246.00 1500.03 321 611 0.370 10000.000 0.000 -0.011
83 249.00 1500.03 329 523 0.370 10000.000 0.000 -0.011
84 252.00 1500.03 305 507 0.370 10000.000 0.000 -0.011
85 255.00 1500.03 312 528 0.370 10000.000 0.000 -0.011
86 258.00 1500.03 315 531 0.370 10000.000 0.000 -0.011
87 261.00 1500.03 273 556 0.370 10000.000 0.000 -0.011
88 264.00 1500.03 312 597 0.370 10000.000 0.000 -0.011
89 267.00 1500.03 330 583 0.370 10000.000 0.000 -0.011
90 270.00 1500.03 304 587 0.370 10000.000 0.000 -0.011
91 273.00 1500.03 280 596 0.370 10000.000 0.000 -0.011
92 276.00 1500.03 304 583 0.370 10000.000 0.000 -0.011
93 279.00 1500.03 318 652 0.370 10000.000 0.000 -0.011
94 282.00 1500.03 301 638 0.370 10000.000 0.000 -0.011
95 285.00 1500.03 282 657 0.370 10000.000 0.000 -0.011
96 288.00 1500.03 304 719 0.370 10000.000 0.000 -0.011
97 291.00 1500.03 303 677 0.370 10000.000 0.000 -0.011
98 294.00 1500.03 323 693 0.370 10000.000 0.000 -0.011
99 297.00 1500.03 273 710 0.370 10000.000 0.000 -0.011
100 300.00 1500.03 289 716 0.370 10000.000 0.000 -0.011
101 303.00 1500.03 309 729 0.370 10000.000 0.000 -0.011
102 306.00 1500.03 336 711 0.370 10000.000 0.000 -0.011
103 309.00 1500.03 314 696 0.370 10000.000 0.000 -0.011
104 312.00 1500.03 294 686 0.370 10000.000 0.000 -0.011
105 315.00 1500.03 287 616 0.370 10000.000 0.000 -0.011
106 318.00 1500.03 315 575 0.370 10000.000 0.000 -0.011
107 321.00 1500.03 311 626 0.370 10000.000 0.000 -0.011
108 324.00 1500.03 285 625 0.370 10000.000 0.000 -0.011
109 327.00 1500.03 299 610 0.370 10000.000 0.000 -0.011
110 330.00 1500.03 289 596 0.370 10000.000 0.000 -0.011
111 333.00 1500.03 282 519 0.370 10000.000 0.000 -0.011
112 336.00 1500.03 317 546 0.370 10000.000 0.000 -0.011
113 339.00 1500.03 311 534 0.370 10000.000 0.000 -0.011
114 342.00 1500.03 315 523 0.370 10000.000 0.000 -0.011
115 345.00 1500.03 295 539 0.370 10000.000 0.000 -0.011
116 348.00 1500.03 332 556 0.370 10000.000 0.000 -0.011
117 351.00 1500.03 285 497 0.370 10000.000 0.000 -0.011
118 354.00 1500.03 322 547 0.370 10000.000 0.000 -0.011
119 357.00 1500.03 329 538 0.370 10000.000 0.000 -0.011
120 360.00 1500.03 312 528 0.370 10000.000 0.000 -0.011
121 363.00 1500.03 300 598 0.370 10000.000 0.000 -0.011
122 366.00 1500.03 321 560 0.370 10000.000 0.000 -0.011
123 369.00 1500.03 317 563 0.370 10000.000 0.000 -0.011
124 372.00 1500.03 306 599 0.370 10000.000 0.000 -0.011
125 375.00 1500.03 319 608 0.370 10000.000 0.000 -0.011
126 378.00 1500.03 335 643 0.370 10000.000 0.000 -0.011
127 381.00 1500.03 318 658 0.370 10000.000 0.000 -0.011
128 384.00 1500.03 307 686 0.370 10000.000 0.000 -0.011
129 387.00 1500.03 315 665 0.370 10000.000 0.000 -0.011
130 390.00 1500.03 320 717 0.370 10000.000 0.000 -0.011
131 393.00 1500.03 288 665 0.370 10000.000 0.000 -0.011
132 396.00 1500.03 305 751 0.370 10000.000 0.000 -0.011
133 399.00 1500.03 296 706 0.370 10000.000 0.000 -0.011
134 402.00 1500.03 296 696 0.370 10000.000 0.000 -0.011
135 405.00 1500.03 271 701 0.370 10000.000 0.000 -0.011
136 408.00 1500.03 329 699 0.370 10000.000 0.000 -0.011
137 411.00 1500.03 274 692 0.370 10000.000 0.000 -0.011
138 414.00 1500.03 313 627 0.370 10000.000 0.000 -0.011
139 417.00 1500.03 313 643 0.370 10000.000 0.000 -0.011
140 420.00 1500.03 298 656 0.370 10000.000 0.000 -0.011
141 423.00 1500.03 285 651 0.370 10000.000 0.000 -0.011
142 426.00 1500.03 257 592 0.370 10000.000 0.000 -0.011
143 429.00 1500.03 297 561 0.370 10000.000 0.000 -0.011
144 432.00 1500.03 306 625 0.370 10000.000 0.000 -0.011
