# BinNR microsec tot-time (s)  O-Beam AUX Ampl(V) f(Hz) phase(deg) chi(pos)
0 0.00 1500.02 203 551 0.370 10000.000 0.000 -0.341
1 3.00 1500.02 408 1002 0.370 10000.000 0.000 -0.341
2 6.00 1500.02 415 1058 0.370 10000.000 0.000 -0.341
3 9.00 1500.02 404 1052 0.370 10000.000 0.000 -0.341
4 12.00 1500.02 396 1123 0.370 10000.000 0.000 -0.341
5 15.00 1500.02 434 1087 0.370 10000.000 0.000 -0.341
6 18.00 1500.02 460 1094 0.370 10000.000 0.000 -0.341
7 21.00 1500.02 420 1031 0.370 10000.000 0.000 -0.341
8 24.00 1500.02 404 1088 0.370 10000.000 0.000 -0.341
9 27.00 1500.02 455 1090 0.370 10000.000 0.000 -0.341
10 30.00 1500.02 421 1217 0.370 10000.000 0.000 -0.341
11 33.00 1500.02 428 1170 0.370 10000.000 0.000 -0.341
12 36.00 1500.02 475 1087 0.370 10000.000 0.000 -0.341
13 39.00 1500.02 430 1079 0.370 10000.000 0.000 -0.341
14 42.00 1500.02 447 1131 0.370 10000.000 0.000 -0.341
15 45.00 1500.02 420 1113 0.370 10000.000 0.000 -0.341
16 48.00 1500.02 423 1099 0.370 10000.000 0.000 -0.341
17 51.00 1500.02 446 1042 0.370 10000.000 0.000 -0.341
18 54.00 1500.02 442 1055 0.370 10000.000 0.000 -0.341
19 57.00 1500.02 398 1096 0.370 10000.000 0.000 -0.341
20 60.00 1500.02 448 1077 0.370 10000.000 0.000 -0.341
21 63.00 1500.02 423 1104 0.370 10000.000 0.000 -0.341
22 66.00 1500.02 455 1052 0.370 10000.000 0.000 -0.341
23 69.00 1500.02 389 1129 0.370 10000.000 0.000 -0.341
24 72.00 1500.02 406 1069 0.370 10000.000 0.000 -0.341
25 75.00 1500.02 416 1134 0.370 10000.000 0.000 -0.341
26 78.00 1500.02 402 1140 0.370 10000.000 0.000 -0.341
27 81.00 1500.02 392 1113 0.370 10000.000 0.000 -0.341
28 84.00 1500.02 406 1120 0.370 10000.000 0.000 -0.341
29 87.00 1500.02 430 1190 0.370 10000.000 0.000 -0.341
30 90.00 1500.02 415 1209 0.370 10000.000 0.000 -0.341
31 93.00 1500.02 416 1088 0.370 10000.000 0.000 -0.341
32 96.00 1500.02 398 1153 0.370 10000.000 0.000 -0.341
33 99.00 1500.02 427 1171 0.370 10000.000 0.000 -0.341
34 102.00 1500.02 432 1175 0.370 10000.000 0.000 -0.341
35 105.00 1500.02 435 1134 0.370 10000.000 0.000 -0.341
36 108.00 1500.02 441 1123 0.370 10000.000 0.000 -0.341
37 111.00 1500.02 447 1102 0.370 10000.000 0.000 -0.341
38 114.00 1500.02 453 1188 0.370 10000.000 0.000 -0.341
39 117.00 1500.02 462 1119 0.370 10000.000 0.000 -0.341
40 120.00 1500.02 438 1167 0.370 10000.000 0.000 -0.341
41 123.00 1500.02 414 1137 0.370 10000.000 0.000 -0.341
42 126.00 1500.02 408 1100 0.370 10000.000 0.000 -0.341
43 129.00 1500.02 447 1103 0.370 10000.000 0.000 -0.341
44 132.00 1500.02 457 1071 0.370 10000.000 0.000 -0.341
45 135.00 1500.02 442 1100 0.370 10000.000 0.000 -0.341
46 138.00 1500.02 446 1111 0.370 10000.000 0.000 -0.341
47 141.00 1500.02 421 1065 0.370 10000.000 0.000 -0.341
48 144.00 1500.02 482 998 0.370 10000.000 0.000 -0.341
49 147.00 1500.02 426 1041 0.370 10000.000 0.000 -0.341
50 150.00 1500.02 437 1022 0.370 10000.000 0.000 -0.341
51 153.00 1500.02 424 1041 0.370 10000.000 0.000 -0.341
52 156.00 1500.02 451 1099 0.370 10000.000 0.000 -0.341
53 159.00 1500.02 425 1050 0.370 10000.000 0.000 -0.341
54 162.00 1500.02 442 1070 0.370 10000.000 0.000 -0.341
55 165.00 1500.02 400 1065 0.370 10000.000 0.000 -0.341
56 168.00 1500.02 420 1087 0.370 10000.000 0.000 -0.341
57 171.00 1500.02 433 1063 0.370 10000.000 0.000 -0.341
58 174.00 1500.02 449 1046 0.370 10000.000 0.000 -0.341
59 177.00 1500.02 420 1106 0.370 10000.000 0.000 -0.341
60 180.00 1500.02 446 1187 0.370 10000.000 0.000 -0.341
61 183.00 1500.02 409 1168 0.370 10000.000 0.000 -0.341
62 186.00 1500.02 428 1056 0.370 10000.000 0.000 -0.341
63 189.00 1500.02 433 1129 0.370 10000.000 0.000 -0.341
64 192.00 1500.02 463 1212 0.370 10000.000 0.000 -0.341
65 195.00 1500.02 387 1167 0.370 10000.000 0.000 -0.341
66 198.00 1500.02 435 1186 0.370 10000.000 0.000 -0.341
67 201.00 1500.02 403 1109 0.370 10000.000 0.000 -0.341
68 204.00 1500.02 413 1205 0.370 10000.000 0.000 -0.341
69 207.00 1500.02 415 1226 0.370 10000.000 0.000 -0.341
70 210.00 1500.02 432 1204 0.370 10000.000 0.000 -0.341
71 213.00 1500.02 449 1106 0.370 10000.000 0.000 -0.341
72 216.00 1500.02 453 1133 0.370 10000.000 0.000 -0.341
73 219.00 1500.02 442 1090 0.370 10000.000 0.000 -0.341
74 222.00 1500.02 372 1107 0.370 10000.000 0.000 -0.341
75 225.00 1500.02 448 1029 0.370 10000.000 0.000 -0.341
76 228.00 1500.02 426 1138 0.370 10000.000 0.000 -0.341
77 231.00 1500.02 425 1146 0.370 10000.000 0.000 -0.341
78 234.00 1500.02 477 1032 0.370 10000.000 0.000 -0.341
79 237.00 1500.02 451 1085 0.370 10000.000 0.000 -0.341
80 240.00 1500.02 406 1045 0.370 10000.000 0.000 -0.341
81 243.00 1500.02 448 1010 0.370 10000.000 0.000 -0.341
82 246.00 1500.02 448 1114 0.370 10000.000 0.000 -0.341
83 249.00 1500.02 441 1027 0.370 10000.000 0.000 -0.341
84 252.00 1500.02 446 1048 0.370 10000.000 0.000 -0.341
85 255.00 1500.02 412 1043 0.370 10000.000 0.000 -0.341
86 258.00 1500.02 446 1093 0.370 10000.000 0.000 -0.341
87 261.00 1500.02 442 1012 0.370 10000.000 0.000 -0.341
88 264.00 1500.02 463 1063 0.370 10000.000 0.000 -0.341
89 267.00 1500.02 428 1091 0.370 10000.000 0.000 -0.341
90 270.00 1500.02 415 1124 0.370 10000.000 0.000 -0.341
91 273.00 1500.02 421 1101 0.370 10000.000 0.000 -0.341
92 276.00 1500.02 404 1071 0.370 10000.000 0.000 -0.341
93 279.00 1500.02 402 1105 0.370 10000.000 0.000 -0.341
94 282.00 1500.02 402 1128 0.370 10000.000 0.000 -0.341
95 285.00 1500.02 404 1152 0.370 10000.000 0.000 -0.341
96 288.00 1500.02 428 1178 0.370 10000.000 0.000 -0.341
97 291.00 1500.02 452 1149 0.370 10000.000 0.000 -0.341
98 294.00 1500.02 397 1169 0.370 10000.000 0.000 -0.341
99 297.00 1500.02 407 1156 0.370 10000.000 0.000 -0.341
100 300.00 1500.02 396 1187 0.370 10000.000 0.000 -0.341
101 303.00 1500.02 398 1166 0.370 10000.000 0.000 -0.341
102 306.00 1500.02 459 1130 0.370 10000.000 0.000 -0.341
103 309.00 1500.02 421 1213 0.370 10000.000 0.000 -0.341
104 312.00 1500.02 436 1178 0.370 10000.000 0.000 -0.341
105 315.00 1500.02 405 1149 0.370 10000.000 0.000 -0.341
106 318.00 1500.02 400 1203 0.370 10000.000 0.000 -0.341
107 321.00 1500.02 417 1082 0.370 10000.000 0.000 -0.341
108 324.00 1500.02 426 1154 0.370 10000.000 0.000 -0.341
109 327.00 1500.02 424 1113 0.370 10000.000 0.000 -0.341
110 330.00 1500.02 444 1086 0.370 10000.000 0.000 -0.341
111 333.00 1500.02 400 1120 0.370 10000.000 0.000 -0.341
112 336.00 1500.02 416 1031 0.370 10000.000 0.000 -0.341
113 339.00 1500.02 408 1055 0.370 10000.000 0.000 -0.341
114 342.00 1500.02 374 1075 0.370 10000.000 0.000 -0.341
115 345.00 1500.02 425 1080 0.370 10000.000 0.000 -0.341
116 348.00 1500.02 432 1065 0.370 10000.000 0.000 -0.341
117 351.00 1500.02 436 1043 0.370 10000.000 0.000 -0.341
118 354.00 1500.02 425 1073 0.370 10000.000 0.000 -0.341
119 357.00 1500.02 401 1039 0.370 10000.000 0.000 -0.341
120 360.00 1500.02 380 1060 0.370 10000.000 0.000 -0.341
121 363.00 1500.02 416 1069 0.370 10000.000 0.000 -0.341
122 366.00 1500.02 428 1077 0.370 10000.000 0.000 -0.341
123 369.00 1500.02 439 1048 0.370 10000.000 0.000 -0.341
124 372.00 1500.02 427 1143 0.370 10000.000 0.000 -0.341
125 375.00 1500.02 420 1178 0.370 10000.000 0.000 -0.341
126 378.00 1500.02 440 1127 0.370 10000.000 0.000 -0.341
127 381.00 1500.02 442 1141 0.370 10000.000 0.000 -0.341
128 384.00 1500.02 400 1148 0.370 10000.000 0.000 -0.341
129 387.00 1500.02 406 1165 0.370 10000.000 0.000 -0.341
130 390.00 1500.02 456 1157 0.370 10000.000 0.000 -0.341
131 393.00 1500.02 397 1150 0.370 10000.000 0.000 -0.341
132 396.00 1500.02 431 1162 0.370 10000.000 0.000 -0.341
133 399.00 1500.02 420 1155 0.370 10000.000 0.000 -0.341
134 402.00 1500.02 434 1197 0.370 10000.000 0.000 -0.341
135 405.00 1500.02 448 1169 0.370 10000.000 0.000 -0.341
136 408.00 1500.02 407 1099 0.370 10000.000 0.000 -0.341
137 411.00 1500.02 424 1084 0.370 10000.000 0.000 -0.341
138 414.00 1500.02 450 1202 0.370 10000.000 0.000 -0.341
139 417.00 1500.02 408 1200 0.370 10000.000 0.000 -0.341
140 420.00 1500.02 424 1144 0.370 10000.000 0.000 -0.341
141 423.00 1500.02 372 1084 0.370 10000.000 0.000 -0.341
142 426.00 1500.02 404 1175 0.370 10000.000 0.000 -0.341
143 429.00 1500.02 428 1131 0.370 10000.000 0.000 -0.341
144 432.00 1500.02 407 1107 0.370 10000.000 0.000 -0.341
