# BinNR microsec tot-time (s)  O-Beam AUX Ampl_1(V) f_1(Hz) phase_1(deg) Ampl_2(V) f_2(Hz) phase_2(deg) chi(pos)
0 0.00 1500.00 60 155 0.740 10000.000 0.000 0.610 15000.000 0.000 0.154
1 3.00 1500.00 124 334 0.740 10000.000 0.000 0.610 15000.000 0.000 0.154
2 6.00 1500.00 117 323 0.740 10000.000 0.000 0.610 15000.000 0.000 0.154
3 9.00 1500.00 105 333 0.740 10000.000 0.000 0.610 15000.000 0.000 0.154
4 12.00 1500.00 119 337 0.740 10000.000 0.000 0.610 15000.000 0.000 0.154
5 15.00 1500.00 110 298 0.740 10000.000 0.000 0.610 15000.000 0.000 0.154
6 18.00 1500.00 104 317 0.740 10000.000 0.000 0.610 15000.000 0.000 0.154
7 21.00 1500.00 108 259 0.740 10000.000 0.000 0.610 15000.000 0.000 0.154
8 24.00 1500.00 95 305 0.740 10000.000 0.000 0.610 15000.000 0.000 0.154
9 27.00 1500.00 102 268 0.740 10000.000 0.000 0.610 15000.000 0.000 0.154
10 30.00 1500.00 96 239 0.740 10000.000 0.000 0.610 15000.000 0.000 0.154
11 33.00 1500.00 108 257 0.740 10000.000 0.000 0.610 15000.000 0.000 0.154
12 36.00 1500.00 112 277 0.740 10000.000 0.000 0.610 15000.000 0.000 0.154
13 39.00 1500.00 99 267 0.740 10000.000 0.000 0.610 15000.000 0.000 0.154
14 42.00 1500.00 90 269 0.740 10000.000 0.000 0.610 15000.000 0.000 0.154
15 45.00 1500.00 102 269 0.740 10000.000 0.000 0.610 15000.000 0.000 0.154
16 48.00 1500.00 111 291 0.740 10000.000 0.000 0.610 15000.000 0.000 0.154
17 51.00 1500.00 101 308 0.740 10000.000 0.000 0.610 15000.000 0.000 0.154
18 54.00 1500.00 107 303 0.740 10000.000 0.000 0.610 15000.000 0.000 0.154
19 57.00 1500.00 105 354 0.740 10000.000 0.000 0.610 15000.000 0.000 0.154
20 60.00 1500.00 125 301 0.740 10000.000 0.000 0.610 15000.000 0.000 0.154
21 63.00 1500.00 117 307 0.740 10000.000 0.000 0.610 15000.000 0.000 0.154
22 66.00 1500.00 113 259 0.740 10000.000 0.000 0.610 15000.000 0.000 0.154
23 69.00 1500.00 110 258 0.740 10000.000 0.000 0.610 15000.000 0.000 0.154
24 72.00 1500.00 103 250 0.740 10000.000 0.000 0.610 15000.000 0.000 0.154
25 75.00 1500.00 137 253 0.740 10000.000 0.000 0.610 15000.000 0.000 0.154
26 78.00 1500.00 125 218 0.740 10000.000 0.000 0.610 15000.000 0.000 0.154
27 81.00 1500.00 119 237 0.740 10000.000 0.000 0.610 15000.000 0.000 0.154
28 84.00 1500.00 151 214 0.740 10000.000 0.000 0.610 15000.000 0.000 0.154
29 87.00 1500.00 134 206 0.740 10000.000 0.000 0.610 15000.000 0.000 0.154
30 90.00 1500.00 136 207 0.740 10000.000 0.000 0.610 15000.000 0.000 0.154
31 93.00 1500.00 121 213 0.740 10000.000 0.000 0.610 15000.000 0.000 0.154
32 96.00 1500.00 120 225 0.740 10000.000 0.000 0.610 15000.000 0.000 0.154
33 99.00 1500.00 115 223 0.740 10000.000 0.000 0.610 15000.000 0.000 0.154
34 102.00 1500.00 142 217 0.740 10000.000 0.000 0.610 15000.000 0.000 0.154
35 105.00 1500.00 133 235 0.740 10000.000 0.000 0.610 15000.000 0.000 0.154
36 108.00 1500.00 105 226 0.740 10000.000 0.000 0.610 15000.000 0.000 0.154
37 111.00 1500.00 102 255 0.740 10000.000 0.000 0.610 15000.000 0.000 0.154
38 114.00 1500.00 94 258 0.740 10000.000 0.000 0.610 15000.000 0.000 0.154
39 117.00 1500.00 86 269 0.740 10000.000 0.000 0.610 15000.000 0.000 0.154
40 120.00 1500.00 113 313 0.740 10000.000 0.000 0.610 15000.000 0.000 0.154
41 123.00 1500.00 93 290 0.740 10000.000 0.000 0.610 15000.000 0.000 0.154
42 126.00 1500.00 101 312 0.740 10000.000 0.000 0.610 15000.000 0.000 0.154
43 129.00 1500.00 105 295 0.740 10000.000 0.000 0.610 15000.000 0.000 0.154
44 132.00 1500.00 107 272 0.740 10000.000 0.000 0.610 15000.000 0.000 0.154
45 135.00 1500.00 108 249 0.740 10000.000 0.000 0.610 15000.000 0.000 0.154
46 138.00 1500.00 121 280 0.740 10000.000 0.000 0.610 15000.000 0.000 0.154
47 141.00 1500.00 104 273 0.740 10000.000 0.000 0.610 15000.000 0.000 0.154
48 144.00 1500.00 113 259 0.740 10000.000 0.000 0.610 15000.000 0.000 0.154
49 147.00 1500.00 114 282 0.740 10000.000 0.000 0.610 15000.000 0.000 0.154
50 150.00 1500.00 108 264 0.740 10000.000 0.000 0.610 15000.000 0.000 0.154
51 153.00 1500.00 112 301 0.740 10000.000 0.000 0.610 15000.000 0.000 0.154
52 156.00 1500.00 118 297 0.740 10000.000 0.000 0.610 15000.000 0.000 0.154
53 159.00 1500.00 115 283 0.740 10000.000 0.000 0.610 15000.000 0.000 0.154
54 162.00 1500.00 116 267 0.740 10000.000 0.000 0.610 15000.000 0.000 0.154
55 165.00 1500.00 112 262 0.740 10000.000 0.000 0.610 15000.000 0.000 0.154
56 168.00 1500.00 103 257 0.740 10000.000 0.000 0.610 15000.000 0.000 0.154
57 171.00 1500.00 111 249 0.740 10000.000 0.000 0.610 15000.000 0.000 0.154
58 174.00 1500.00 126 302 0.740 10000.000 0.000 0.610 15000.000 0.000 0.154
59 177.00 1500.00 110 289 0.740 10000.000 0.000 0.610 15000.000 0.000 0.154
60 180.00 1500.00 114 257 0.740 10000.000 0.000 0.610 15000.000 0.000 0.154
61 183.00 1500.00 122 236 0.740 10000.000 0.000 0.610 15000.000 0.000 0.154
62 186.00 1500.00 128 233 0.740 10000.000 0.000 0.610 15000.000 0.000 0.154
63 189.00 1500.00 114 246 0.740 10000.000 0.000 0.610 15000.000 0.000 0.154
64 192.00 1500.00 123 230 0.740 10000.000 0.000 0.610 15000.000 0.000 0.154
65 195.00 1500.00 133 205 0.740 10000.000 0.000 0.610 15000.000 0.000 0.154
66 198.00 1500.00 109 229 0.740 10000.000 0.000 0.610 15000.000 0.000 0.154
67 201.00 1500.00 86 230 0.740 10000.000 0.000 0.610 15000.000 0.000 0.154
68 204.00 1500.00 114 212 0.740 10000.000 0.000 0.610 15000.000 0.000 0.154
69 207.00 1500.00 92 230 0.740 10000.000 0.000 0.610 15000.000 0.000 0.154
70 210.00 1500.00 109 227 0.740 10000.000 0.000 0.610 15000.000 0.000 0.154
71 213.00 1500.00 114 227 0.740 10000.000 0.000 0.610 15000.000 0.000 0.154
72 216.00 1500.00 127 209 0.740 10000.000 0.000 0.610 15000.000 0.000 0.154
73 219.00 1500.00 111 215 0.740 10000.000 0.000 0.610 15000.000 0.000 0.154
74 222.00 1500.00 107 261 0.740 10000.000 0.000 0.610 15000.000 0.000 0.154
75 225.00 1500.00 94 247 0.740 10000.000 0.000 0.610 15000.000 0.000 0.154
76 228.00 1500.00 112 276 0.740 10000.000 0.000 0.610 15000.000 0.000 0.154
77 231.00 1500.00 102 273 0.740 10000.000 0.000 0.610 15000.000 0.000 0.154
78 234.00 1500.00 130 309 0.740 10000.000 0.000 0.610 15000.000 0.000 0.154
79 237.00 1500.00 98 320 0.740 10000.000 0.000 0.610 15000.000 0.000 0.154
80 240.00 1500.00 107 341 0.740 10000.000 0.000 0.610 15000.000 0.000 0.154
81 243.00 1500.00 100 346 0.740 10000.000 0.000 0.610 15000.000 0.000 0.154
82 246.00 1500.00 106 385 0.740 10000.000 0.000 0.610 15000.000 0.000 0.154
83 249.00 1500.00 99 346 0.740 10000.000 0.000 0.610 15000.000 0.000 0.154
84 252.00 1500.00 111 347 0.740 10000.000 0.000 0.610 15000.000 0.000 0.154
85 255.00 1500.00 116 349 0.740 10000.000 0.000 0.610 15000.000 0.000 0.154
86 258.00 1500.00 110 327 0.740 10000.000 0.000 0.610 15000.000 0.000 0.154
87 261.00 1500.00 113 307 0.740 10000.000 0.000 0.610 15000.000 0.000 0.154
88 264.00 1500.00 101 276 0.740 10000.000 0.000 0.610 15000.000 0.000 0.154
89 267.00 1500.00 127 264 0.740 10000.000 0.000 0.610 15000.000 0.000 0.154
90 270.00 1500.00 109 262 0.740 10000.000 0.000 0.610 15000.000 0.000 0.154
91 273.00 1500.00 131 229 0.740 10000.000 0.000 0.610 15000.000 0.000 0.154
92 276.00 1500.00 137 247 0.740 10000.000 0.000 0.610 15000.000 0.000 0.154
93 279.00 1500.00 149 222 0.740 10000.000 0.000 0.610 15000.000 0.000 0.154
94 282.00 1500.00 107 223 0.740 10000.000 0.000 0.610 15000.000 0.000 0.154
95 285.00 1500.00 108 222 0.740 10000.000 0.000 0.610 15000.000 0.000 0.154
96 288.00 1500.00 130 201 0.740 10000.000 0.000 0.610 15000.000 0.000 0.154
97 291.00 1500.00 138 202 0.740 10000.000 0.000 0.610 15000.000 0.000 0.154
98 294.00 1500.00 97 253 0.740 10000.000 0.000 0.610 15000.000 0.000 0.154
99 297.00 1500.00 94 237 0.740 10000.000 0.000 0.610 15000.000 0.000 0.154
100 300.00 1500.00 104 206 0.740 10000.000 0.000 0.610 15000.000 0.000 0.154
101 303.00 1500.00 103 238 0.740 10000.000 0.000 0.610 15000.000 0.000 0.154
102 306.00 1500.00 108 258 0.740 10000.000 0.000 0.610 15000.000 0.000 0.154
103 309.00 1500.00 119 222 0.740 10000.000 0.000 0.610 15000.000 0.000 0.154
104 312.00 1500.00 112 269 0.740 10000.000 0.000 0.610 15000.000 0.000 0.154
105 315.00 1500.00 105 276 0.740 10000.000 0.000 0.610 15000.000 0.000 0.154
106 318.00 1500.00 109 281 0.740 10000.000 0.000 0.610 15000.000 0.000 0.154
107 321.00 1500.00 116 280 0.740 10000.000 0.000 0.610 15000.000 0.000 0.154
108 324.00 1500.00 104 312 0.740 10000.000 0.000 0.610 15000.000 0.000 0.154
109 327.00 1500.00 115 303 0.740 10000.000 0.000 0.610 15000.000 0.000 0.154
110 330.00 1500.00 119 301 0.740 10000.000 0.000 0.610 15000.000 0.000 0.154
111 333.00 1500.00 132 283 0.740 10000.000 0.000 0.610 15000.000 0.000 0.154
112 336.00 1500.00 104 290 0.740 10000.000 0.000 0.610 15000.000 0.000 0.154
113 339.00 1500.00 109 272 0.740 10000.000 0.000 0.610 15000.000 0.000 0.154
114 342.00 1500.00 117 284 0.740 10000.000 0.000 0.610 15000.000 0.000 0.154
115 345.00 1500.00 104 287 0.740 10000.000 0.000 0.610 15000.000 0.000 0.154
116 348.00 1500.00 103 306 0.740 10000.000 0.000 0.610 15000.000 0.000 0.154
117 351.00 1500.00 97 257 0.740 10000.000 0.000 0.610 15000.000 0.000 0.154
118 354.00 1500.00 111 268 0.740 10000.000 0.000 0.610 15000.000 0.000 0.154
119 357.00 1500.00 124 282 0.740 10000.000 0.000 0.610 15000.000 0.000 0.154
120 360.00 1500.00 113 270 0.740 10000.000 0.000 0.610 15000.000 0.000 0.154
121 363.00 1500.00 91 282 0.740 10000.000 0.000 0.610 15000.000 0.000 0.154
122 366.00 1500.00 100 299 0.740 10000.000 0.000 0.610 15000.000 0.000 0.154
123 369.00 1500.00 91 265 0.740 10000.000 0.000 0.610 15000.000 0.000 0.154
124 372.00 1500.00 99 311 0.740 10000.000 0.000 0.610 15000.000 0.000 0.154
125 375.00 1500.00 105 261 0.740 10000.000 0.000 0.610 15000.000 0.000 0.154
126 378.00 1500.00 102 296 0.740 10000.000 0.000 0.610 15000.000 0.000 0.154
127 381.00 1500.00 105 241 0.740 10000.000 0.000 0.610 15000.000 0.000 0.154
128 384.00 1500.00 118 280 0.740 10000.000 0.000 0.610 15000.000 0.000 0.154
129 387.00 1500.00 104 239 0.740 10000.000 0.000 0.610 15000.000 0.000 0.154
130 390.00 1500.00 110 243 0.740 10000.000 0.000 0.610 15000.000 0.000 0.154
131 393.00 1500.00 112 243 0.740 10000.000 0.000 0.610 15000.000 0.000 0.154
132 396.00 1500.00 115 222 0.740 10000.000 0.000 0.610 15000.000 0.000 0.154
133 399.00 1500.00 104 201 0.740 10000.000 0.000 0.610 15000.000 0.000 0.154
134 402.00 1500.00 110 212 0.740 10000.000 0.000 0.610 15000.000 0.000 0.154
135 405.00 1500.00 109 217 0.740 10000.000 0.000 0.610 15000.000 0.000 0.154
136 408.00 1500.00 114 194 0.740 10000.000 0.000 0.610 15000.000 0.000 0.154
137 411.00 1500.00 119 208 0.740 10000.000 0.000 0.610 15000.000 0.000 0.154
138 414.00 1500.00 118 212 0.740 10000.000 0.000 0.610 15000.000 0.000 0.154
139 417.00 1500.00 115 234 0.740 10000.000 0.000 0.610 15000.000 0.000 0.154
140 420.00 1500.00 101 239 0.740 10000.000 0.000 0.610 15000.000 0.000 0.154
141 423.00 1500.00 121 219 0.740 10000.000 0.000 0.610 15000.000 0.000 0.154
142 426.00 1500.00 100 245 0.740 10000.000 0.000 0.610 15000.000 0.000 0.154
143 429.00 1500.00 106 269 0.740 10000.000 0.000 0.610 15000.000 0.000 0.154
144 432.00 1500.00 111 267 0.740 10000.000 0.000 0.610 15000.000 0.000 0.154
