# BinNR microsec tot-time (s)  O-Beam AUX Ampl(V) f(Hz) phase(deg) chi(pos)
0 0.00 1500.00 108 292 1.000 10000.000 0.000 0.670
1 3.00 1500.00 221 600 1.000 10000.000 0.000 0.670
2 6.00 1500.00 210 618 1.000 10000.000 0.000 0.670
3 9.00 1500.00 222 654 1.000 10000.000 0.000 0.670
4 12.00 1500.00 215 634 1.000 10000.000 0.000 0.670
5 15.00 1500.00 241 661 1.000 10000.000 0.000 0.670
6 18.00 1500.00 238 711 1.000 10000.000 0.000 0.670
7 21.00 1500.00 221 629 1.000 10000.000 0.000 0.670
8 24.00 1500.00 239 724 1.000 10000.000 0.000 0.670
9 27.00 1500.00 248 704 1.000 10000.000 0.000 0.670
10 30.00 1500.00 235 708 1.000 10000.000 0.000 0.670
11 33.00 1500.00 229 724 1.000 10000.000 0.000 0.670
12 36.00 1500.00 240 691 1.000 10000.000 0.000 0.670
13 39.00 1500.00 223 732 1.000 10000.000 0.000 0.670
14 42.00 1500.00 254 697 1.000 10000.000 0.000 0.670
15 45.00 1500.00 235 758 1.000 10000.000 0.000 0.670
16 48.00 1500.00 239 698 1.000 10000.000 0.000 0.670
17 51.00 1500.00 261 725 1.000 10000.000 0.000 0.670
18 54.00 1500.00 243 713 1.000 10000.000 0.000 0.670
19 57.00 1500.00 236 764 1.000 10000.000 0.000 0.670
20 60.00 1500.00 238 699 1.000 10000.000 0.000 0.670
21 63.00 1500.00 235 695 1.000 10000.000 0.000 0.670
22 66.00 1500.00 204 659 1.000 10000.000 0.000 0.670
23 69.00 1500.00 208 709 1.000 10000.000 0.000 0.670
24 72.00 1500.00 224 679 1.000 10000.000 0.000 0.670
25 75.00 1500.00 212 664 1.000 10000.000 0.000 0.670
26 78.00 1500.00 213 701 1.000 10000.000 0.000 0.670
27 81.00 1500.00 221 605 1.000 10000.000 0.000 0.670
28 84.00 1500.00 218 663 1.000 10000.000 0.000 0.670
29 87.00 1500.00 190 622 1.000 10000.000 0.000 0.670
30 90.00 1500.00 199 675 1.000 10000.000 0.000 0.670
31 93.00 1500.00 197 602 1.000 10000.000 0.000 0.670
32 96.00 1500.00 197 545 1.000 10000.000 0.000 0.670
33 99.00 1500.00 212 565 1.000 10000.000 0.000 0.670
34 102.00 1500.00 205 630 1.000 10000.000 0.000 0.670
35 105.00 1500.00 217 618 1.000 10000.000 0.000 0.670
36 108.00 1500.00 191 632 1.000 10000.000 0.000 0.670
37 111.00 1500.00 222 658 1.000 10000.000 0.000 0.670
38 114.00 1500.00 222 685 1.000 10000.000 0.000 0.670
39 117.00 1500.00 209 604 1.000 10000.000 0.000 0.670
40 120.00 1500.00 204 702 1.000 10000.000 0.000 0.670
41 123.00 1500.00 237 675 1.000 10000.000 0.000 0.670
42 126.00 1500.00 240 724 1.000 10000.000 0.000 0.670
43 129.00 1500.00 205 707 1.000 10000.000 0.000 0.670
44 132.00 1500.00 249 697 1.000 10000.000 0.000 0.670
45 135.00 1500.00 228 722 1.000 10000.000 0.000 0.670
46 138.00 1500.00 216 645 1.000 10000.000 0.000 0.670
47 141.00 1500.00 233 671 1.000 10000.000 0.000 0.670
48 144.00 1500.00 242 765 1.000 10000.000 0.000 0.670
49 147.00 1500.00 214 757 1.000 10000.000 0.000 0.670
50 150.00 1500.00 243 765 1.000 10000.000 0.000 0.670
51 153.00 1500.00 227 708 1.000 10000.000 0.000 0.670
52 156.00 1500.00 247 683 1.000 10000.000 0.000 0.670
53 159.00 1500.00 239 737 1.000 10000.000 0.000 0.670
54 162.00 1500.00 230 705 1.000 10000.000 0.000 0.670
55 165.00 1500.00 230 728 1.000 10000.000 0.000 0.670
56 168.00 1500.00 205 671 1.000 10000.000 0.000 0.670
57 171.00 1500.00 210 672 1.000 10000.000 0.000 0.670
58 174.00 1500.00 233 675 1.000 10000.000 0.000 0.670
59 177.00 1500.00 192 655 1.000 10000.000 0.000 0.670
60 180.00 1500.00 188 625 1.000 10000.000 0.000 0.670
61 183.00 1500.00 208 612 1.000 10000.000 0.000 0.670
62 186.00 1500.00 212 636 1.000 10000.000 0.000 0.670
63 189.00 1500.00 194 563 1.000 10000.000 0.000 0.670
64 192.00 1500.00 199 656 1.000 10000.000 0.000 0.670
65 195.00 1500.00 214 589 1.000 10000.000 0.000 0.670
66 198.00 1500.00 201 594 1.000 10000.000 0.000 0.670
67 201.00 1500.00 201 610 1.000 10000.000 0.000 0.670
68 204.00 1500.00 219 559 1.000 10000.000 0.000 0.670
69 207.00 1500.00 204 619 1.000 10000.000 0.000 0.670
70 210.00 1500.00 213 613 1.000 10000.000 0.000 0.670
71 213.00 1500.00 212 649 1.000 10000.000 0.000 0.670
72 216.00 1500.00 200 676 1.000 10000.000 0.000 0.670
73 219.00 1500.00 223 634 1.000 10000.000 0.000 0.670
74 222.00 1500.00 235 652 1.000 10000.000 0.000 0.670
75 225.00 1500.00 232 667 1.000 10000.000 0.000 0.670
76 228.00 1500.00 234 716 1.000 10000.000 0.000 0.670
77 231.00 1500.00 234 733 1.000 10000.000 0.000 0.670
78 234.00 1500.00 262 703 1.000 10000.000 0.000 0.670
79 237.00 1500.00 233 660 1.000 10000.000 0.000 0.670
80 240.00 1500.00 257 703 1.000 10000.000 0.000 0.670
81 243.00 1500.00 243 707 1.000 10000.000 0.000 0.670
82 246.00 1500.00 223 686 1.000 10000.000 0.000 0.670
83 249.00 1500.00 235 686 1.000 10000.000 0.000 0.670
84 252.00 1500.00 268 705 1.000 10000.000 0.000 0.670
85 255.00 1500.00 242 712 1.000 10000.000 0.000 0.670
86 258.00 1500.00 227 703 1.000 10000.000 0.000 0.670
87 261.00 1500.00 218 678 1.000 10000.000 0.000 0.670
88 264.00 1500.00 229 683 1.000 10000.000 0.000 0.670
89 267.00 1500.00 240 678 1.000 10000.000 0.000 0.670
90 270.00 1500.00 234 738 1.000 10000.000 0.000 0.670
91 273.00 1500.00 217 665 1.000 10000.000 0.000 0.670
92 276.00 1500.00 220 649 1.000 10000.000 0.000 0.670
93 279.00 1500.00 178 635 1.000 10000.000 0.000 0.670
94 282.00 1500.00 200 622 1.000 10000.000 0.000 0.670
95 285.00 1500.00 201 601 1.000 10000.000 0.000 0.670
96 288.00 1500.00 186 616 1.000 10000.000 0.000 0.670
97 291.00 1500.00 210 581 1.000 10000.000 0.000 0.670
98 294.00 1500.00 232 618 1.000 10000.000 0.000 0.670
99 297.00 1500.00 203 567 1.000 10000.000 0.000 0.670
100 300.00 1500.00 225 630 1.000 10000.000 0.000 0.670
101 303.00 1500.00 207 572 1.000 10000.000 0.000 0.670
102 306.00 1500.00 207 641 1.000 10000.000 0.000 0.670
103 309.00 1500.00 227 603 1.000 10000.000 0.000 0.670
104 312.00 1500.00 209 627 1.000 10000.000 0.000 0.670
105 315.00 1500.00 204 636 1.000 10000.000 0.000 0.670
106 318.00 1500.00 240 707 1.000 10000.000 0.000 0.670
107 321.00 1500.00 219 667 1.000 10000.000 0.000 0.670
108 324.00 1500.00 216 650 1.000 10000.000 0.000 0.670
109 327.00 1500.00 230 634 1.000 10000.000 0.000 0.670
110 330.00 1500.00 220 717 1.000 10000.000 0.000 0.670
111 333.00 1500.00 260 768 1.000 10000.000 0.000 0.670
112 336.00 1500.00 245 727 1.000 10000.000 0.000 0.670
113 339.00 1500.00 245 758 1.000 10000.000 0.000 0.670
114 342.00 1500.00 289 689 1.000 10000.000 0.000 0.670
115 345.00 1500.00 235 742 1.000 10000.000 0.000 0.670
116 348.00 1500.00 251 687 1.000 10000.000 0.000 0.670
117 351.00 1500.00 259 652 1.000 10000.000 0.000 0.670
118 354.00 1500.00 252 662 1.000 10000.000 0.000 0.670
119 357.00 1500.00 214 693 1.000 10000.000 0.000 0.670
120 360.00 1500.00 245 736 1.000 10000.000 0.000 0.670
121 363.00 1500.00 246 754 1.000 10000.000 0.000 0.670
122 366.00 1500.00 232 679 1.000 10000.000 0.000 0.670
123 369.00 1500.00 213 663 1.000 10000.000 0.000 0.670
124 372.00 1500.00 234 676 1.000 10000.000 0.000 0.670
125 375.00 1500.00 215 653 1.000 10000.000 0.000 0.670
126 378.00 1500.00 208 628 1.000 10000.000 0.000 0.670
127 381.00 1500.00 192 625 1.000 10000.000 0.000 0.670
128 384.00 1500.00 198 625 1.000 10000.000 0.000 0.670
129 387.00 1500.00 212 593 1.000 10000.000 0.000 0.670
130 390.00 1500.00 193 641 1.000 10000.000 0.000 0.670
131 393.00 1500.00 216 616 1.000 10000.000 0.000 0.670
132 396.00 1500.00 242 585 1.000 10000.000 0.000 0.670
133 399.00 1500.00 182 560 1.000 10000.000 0.000 0.670
134 402.00 1500.00 224 589 1.000 10000.000 0.000 0.670
