# BinNR microsec tot-time (s)  O-Beam AUX Ampl(V) f(Hz) phase(deg) chi(pos)
0 0.00 1200.01 124 177 3.660 10000.000 0.000 0.527
1 3.00 1200.01 215 391 3.660 10000.000 0.000 0.527
2 6.00 1200.01 247 371 3.660 10000.000 0.000 0.527
3 9.00 1200.01 236 313 3.660 10000.000 0.000 0.527
4 12.00 1200.01 248 334 3.660 10000.000 0.000 0.527
5 15.00 1200.01 244 266 3.660 10000.000 0.000 0.527
6 18.00 1200.01 218 217 3.660 10000.000 0.000 0.527
7 21.00 1200.01 207 204 3.660 10000.000 0.000 0.527
8 24.00 1200.01 198 189 3.660 10000.000 0.000 0.527
9 27.00 1200.01 196 142 3.660 10000.000 0.000 0.527
10 30.00 1200.01 163 159 3.660 10000.000 0.000 0.527
11 33.00 1200.01 154 182 3.660 10000.000 0.000 0.527
12 36.00 1200.01 145 210 3.660 10000.000 0.000 0.527
13 39.00 1200.01 148 253 3.660 10000.000 0.000 0.527
14 42.00 1200.01 114 334 3.660 10000.000 0.000 0.527
15 45.00 1200.01 89 372 3.660 10000.000 0.000 0.527
16 48.00 1200.01 80 481 3.660 10000.000 0.000 0.527
17 51.00 1200.01 104 501 3.660 10000.000 0.000 0.527
18 54.00 1200.01 114 497 3.660 10000.000 0.000 0.527
19 57.00 1200.01 90 619 3.660 10000.000 0.000 0.527
20 60.00 1200.01 123 581 3.660 10000.000 0.000 0.527
21 63.00 1200.01 109 569 3.660 10000.000 0.000 0.527
22 66.00 1200.01 134 572 3.660 10000.000 0.000 0.527
23 69.00 1200.01 161 567 3.660 10000.000 0.000 0.527
24 72.00 1200.01 142 522 3.660 10000.000 0.000 0.527
25 75.00 1200.01 174 542 3.660 10000.000 0.000 0.527
26 78.00 1200.01 183 572 3.660 10000.000 0.000 0.527
27 81.00 1200.01 223 531 3.660 10000.000 0.000 0.527
28 84.00 1200.01 214 483 3.660 10000.000 0.000 0.527
29 87.00 1200.01 226 418 3.660 10000.000 0.000 0.527
30 90.00 1200.01 193 347 3.660 10000.000 0.000 0.527
31 93.00 1200.01 217 323 3.660 10000.000 0.000 0.527
32 96.00 1200.01 238 248 3.660 10000.000 0.000 0.527
33 99.00 1200.01 241 196 3.660 10000.000 0.000 0.527
34 102.00 1200.01 260 164 3.660 10000.000 0.000 0.527
35 105.00 1200.01 267 157 3.660 10000.000 0.000 0.527
36 108.00 1200.01 228 124 3.660 10000.000 0.000 0.527
37 111.00 1200.01 232 140 3.660 10000.000 0.000 0.527
38 114.00 1200.01 259 115 3.660 10000.000 0.000 0.527
39 117.00 1200.01 214 109 3.660 10000.000 0.000 0.527
40 120.00 1200.01 210 140 3.660 10000.000 0.000 0.527
41 123.00 1200.01 215 116 3.660 10000.000 0.000 0.527
42 126.00 1200.01 203 135 3.660 10000.000 0.000 0.527
43 129.00 1200.01 159 158 3.660 10000.000 0.000 0.527
44 132.00 1200.01 167 219 3.660 10000.000 0.000 0.527
45 135.00 1200.01 132 224 3.660 10000.000 0.000 0.527
46 138.00 1200.01 133 308 3.660 10000.000 0.000 0.527
47 141.00 1200.01 116 365 3.660 10000.000 0.000 0.527
48 144.00 1200.01 120 393 3.660 10000.000 0.000 0.527
49 147.00 1200.01 114 471 3.660 10000.000 0.000 0.527
50 150.00 1200.01 91 495 3.660 10000.000 0.000 0.527
51 153.00 1200.01 118 515 3.660 10000.000 0.000 0.527
52 156.00 1200.01 111 573 3.660 10000.000 0.000 0.527
53 159.00 1200.01 115 577 3.660 10000.000 0.000 0.527
54 162.00 1200.01 122 528 3.660 10000.000 0.000 0.527
55 165.00 1200.01 125 613 3.660 10000.000 0.000 0.527
56 168.00 1200.01 148 562 3.660 10000.000 0.000 0.527
57 171.00 1200.01 141 563 3.660 10000.000 0.000 0.527
58 174.00 1200.01 174 545 3.660 10000.000 0.000 0.527
59 177.00 1200.01 208 543 3.660 10000.000 0.000 0.527
60 180.00 1200.01 228 513 3.660 10000.000 0.000 0.527
61 183.00 1200.01 214 473 3.660 10000.000 0.000 0.527
62 186.00 1200.01 209 483 3.660 10000.000 0.000 0.527
63 189.00 1200.01 237 358 3.660 10000.000 0.000 0.527
64 192.00 1200.01 251 295 3.660 10000.000 0.000 0.527
65 195.00 1200.01 209 253 3.660 10000.000 0.000 0.527
66 198.00 1200.01 224 214 3.660 10000.000 0.000 0.527
67 201.00 1200.01 232 187 3.660 10000.000 0.000 0.527
68 204.00 1200.01 210 140 3.660 10000.000 0.000 0.527
69 207.00 1200.01 249 141 3.660 10000.000 0.000 0.527
70 210.00 1200.01 254 101 3.660 10000.000 0.000 0.527
71 213.00 1200.01 235 120 3.660 10000.000 0.000 0.527
72 216.00 1200.01 261 121 3.660 10000.000 0.000 0.527
73 219.00 1200.01 224 117 3.660 10000.000 0.000 0.527
74 222.00 1200.01 212 148 3.660 10000.000 0.000 0.527
75 225.00 1200.01 197 140 3.660 10000.000 0.000 0.527
76 228.00 1200.01 171 162 3.660 10000.000 0.000 0.527
77 231.00 1200.01 176 180 3.660 10000.000 0.000 0.527
78 234.00 1200.01 166 231 3.660 10000.000 0.000 0.527
79 237.00 1200.01 132 294 3.660 10000.000 0.000 0.527
80 240.00 1200.01 132 374 3.660 10000.000 0.000 0.527
81 243.00 1200.01 112 421 3.660 10000.000 0.000 0.527
82 246.00 1200.01 135 439 3.660 10000.000 0.000 0.527
83 249.00 1200.01 156 494 3.660 10000.000 0.000 0.527
84 252.00 1200.01 137 503 3.660 10000.000 0.000 0.527
85 255.00 1200.01 125 540 3.660 10000.000 0.000 0.527
86 258.00 1200.01 156 568 3.660 10000.000 0.000 0.527
87 261.00 1200.01 180 581 3.660 10000.000 0.000 0.527
88 264.00 1200.01 179 587 3.660 10000.000 0.000 0.527
89 267.00 1200.01 193 571 3.660 10000.000 0.000 0.527
90 270.00 1200.01 186 532 3.660 10000.000 0.000 0.527
91 273.00 1200.01 202 573 3.660 10000.000 0.000 0.527
92 276.00 1200.01 205 552 3.660 10000.000 0.000 0.527
93 279.00 1200.01 182 536 3.660 10000.000 0.000 0.527
94 282.00 1200.01 180 483 3.660 10000.000 0.000 0.527
95 285.00 1200.01 141 395 3.660 10000.000 0.000 0.527
96 288.00 1200.01 152 391 3.660 10000.000 0.000 0.527
97 291.00 1200.01 156 355 3.660 10000.000 0.000 0.527
98 294.00 1200.01 133 284 3.660 10000.000 0.000 0.527
99 297.00 1200.01 153 230 3.660 10000.000 0.000 0.527
100 300.00 1200.01 124 174 3.660 10000.000 0.000 0.527
101 303.00 1200.01 154 150 3.660 10000.000 0.000 0.527
102 306.00 1200.01 151 137 3.660 10000.000 0.000 0.527
103 309.00 1200.01 153 121 3.660 10000.000 0.000 0.527
104 312.00 1200.01 164 117 3.660 10000.000 0.000 0.527
105 315.00 1200.01 203 113 3.660 10000.000 0.000 0.527
106 318.00 1200.01 218 126 3.660 10000.000 0.000 0.527
107 321.00 1200.01 222 120 3.660 10000.000 0.000 0.527
108 324.00 1200.01 253 141 3.660 10000.000 0.000 0.527
109 327.00 1200.01 211 130 3.660 10000.000 0.000 0.527
110 330.00 1200.01 232 164 3.660 10000.000 0.000 0.527
111 333.00 1200.01 238 202 3.660 10000.000 0.000 0.527
112 336.00 1200.01 223 274 3.660 10000.000 0.000 0.527
113 339.00 1200.01 223 343 3.660 10000.000 0.000 0.527
114 342.00 1200.01 227 411 3.660 10000.000 0.000 0.527
115 345.00 1200.01 224 425 3.660 10000.000 0.000 0.527
116 348.00 1200.01 220 486 3.660 10000.000 0.000 0.527
117 351.00 1200.01 232 511 3.660 10000.000 0.000 0.527
118 354.00 1200.01 241 554 3.660 10000.000 0.000 0.527
119 357.00 1200.01 210 568 3.660 10000.000 0.000 0.527
120 360.00 1200.01 181 574 3.660 10000.000 0.000 0.527
121 363.00 1200.01 182 545 3.660 10000.000 0.000 0.527
122 366.00 1200.01 184 580 3.660 10000.000 0.000 0.527
123 369.00 1200.01 153 535 3.660 10000.000 0.000 0.527
124 372.00 1200.01 151 541 3.660 10000.000 0.000 0.527
125 375.00 1200.01 118 523 3.660 10000.000 0.000 0.527
126 378.00 1200.01 109 533 3.660 10000.000 0.000 0.527
127 381.00 1200.01 95 524 3.660 10000.000 0.000 0.527
128 384.00 1200.01 109 474 3.660 10000.000 0.000 0.527
129 387.00 1200.01 93 401 3.660 10000.000 0.000 0.527
130 390.00 1200.01 111 337 3.660 10000.000 0.000 0.527
131 393.00 1200.01 102 295 3.660 10000.000 0.000 0.527
132 396.00 1200.01 114 230 3.660 10000.000 0.000 0.527
133 399.00 1200.01 105 192 3.660 10000.000 0.000 0.527
134 402.00 1200.01 152 162 3.660 10000.000 0.000 0.527
135 405.00 1200.01 131 170 3.660 10000.000 0.000 0.527
136 408.00 1200.01 157 142 3.660 10000.000 0.000 0.527
137 411.00 1200.01 176 122 3.660 10000.000 0.000 0.527
138 414.00 1200.01 213 174 3.660 10000.000 0.000 0.527
139 417.00 1200.01 199 229 3.660 10000.000 0.000 0.527
140 420.00 1200.01 228 265 3.660 10000.000 0.000 0.527
141 423.00 1200.01 227 300 3.660 10000.000 0.000 0.527
