# BinNR microsec tot-time (s)  O-Beam AUX Ampl(V) f(Hz) phase(deg) chi(pos)
0 0.00 1175.67 221 691 2.000 10000.000 0.000 1.505
1 3.00 1175.67 381 1339 2.000 10000.000 0.000 1.505
2 6.00 1175.67 431 1298 2.000 10000.000 0.000 1.505
3 9.00 1175.67 430 1229 2.000 10000.000 0.000 1.505
4 12.00 1175.67 430 1247 2.000 10000.000 0.000 1.505
5 15.00 1175.67 411 1173 2.000 10000.000 0.000 1.505
6 18.00 1175.67 399 1107 2.000 10000.000 0.000 1.505
7 21.00 1175.67 390 992 2.000 10000.000 0.000 1.505
8 24.00 1175.67 365 934 2.000 10000.000 0.000 1.505
9 27.00 1175.67 345 940 2.000 10000.000 0.000 1.505
10 30.00 1175.67 340 861 2.000 10000.000 0.000 1.505
11 33.00 1175.67 412 839 2.000 10000.000 0.000 1.505
12 36.00 1175.67 398 820 2.000 10000.000 0.000 1.505
13 39.00 1175.67 384 858 2.000 10000.000 0.000 1.505
14 42.00 1175.67 405 888 2.000 10000.000 0.000 1.505
15 45.00 1175.67 390 974 2.000 10000.000 0.000 1.505
16 48.00 1175.67 407 995 2.000 10000.000 0.000 1.505
17 51.00 1175.67 438 1075 2.000 10000.000 0.000 1.505
18 54.00 1175.67 443 1141 2.000 10000.000 0.000 1.505
19 57.00 1175.67 438 1215 2.000 10000.000 0.000 1.505
20 60.00 1175.67 439 1218 2.000 10000.000 0.000 1.505
21 63.00 1175.67 446 1267 2.000 10000.000 0.000 1.505
22 66.00 1175.67 415 1330 2.000 10000.000 0.000 1.505
23 69.00 1175.67 475 1218 2.000 10000.000 0.000 1.505
24 72.00 1175.67 435 1390 2.000 10000.000 0.000 1.505
25 75.00 1175.67 424 1285 2.000 10000.000 0.000 1.505
26 78.00 1175.67 448 1284 2.000 10000.000 0.000 1.505
27 81.00 1175.67 449 1235 2.000 10000.000 0.000 1.505
28 84.00 1175.67 449 1289 2.000 10000.000 0.000 1.505
29 87.00 1175.67 436 1311 2.000 10000.000 0.000 1.505
30 90.00 1175.67 421 1328 2.000 10000.000 0.000 1.505
31 93.00 1175.67 396 1301 2.000 10000.000 0.000 1.505
32 96.00 1175.67 462 1310 2.000 10000.000 0.000 1.505
33 99.00 1175.67 426 1236 2.000 10000.000 0.000 1.505
34 102.00 1175.67 425 1323 2.000 10000.000 0.000 1.505
35 105.00 1175.67 446 1245 2.000 10000.000 0.000 1.505
36 108.00 1175.67 424 1268 2.000 10000.000 0.000 1.505
37 111.00 1175.67 405 1176 2.000 10000.000 0.000 1.505
38 114.00 1175.67 429 1238 2.000 10000.000 0.000 1.505
39 117.00 1175.67 393 1174 2.000 10000.000 0.000 1.505
40 120.00 1175.67 380 1100 2.000 10000.000 0.000 1.505
41 123.00 1175.67 363 1033 2.000 10000.000 0.000 1.505
42 126.00 1175.67 388 1002 2.000 10000.000 0.000 1.505
43 129.00 1175.67 381 885 2.000 10000.000 0.000 1.505
44 132.00 1175.67 408 906 2.000 10000.000 0.000 1.505
45 135.00 1175.67 373 860 2.000 10000.000 0.000 1.505
46 138.00 1175.67 370 851 2.000 10000.000 0.000 1.505
47 141.00 1175.67 363 851 2.000 10000.000 0.000 1.505
48 144.00 1175.67 416 925 2.000 10000.000 0.000 1.505
49 147.00 1175.67 386 987 2.000 10000.000 0.000 1.505
50 150.00 1175.67 399 996 2.000 10000.000 0.000 1.505
51 153.00 1175.67 403 1093 2.000 10000.000 0.000 1.505
52 156.00 1175.67 452 1124 2.000 10000.000 0.000 1.505
53 159.00 1175.67 431 1229 2.000 10000.000 0.000 1.505
54 162.00 1175.67 434 1254 2.000 10000.000 0.000 1.505
55 165.00 1175.67 436 1259 2.000 10000.000 0.000 1.505
56 168.00 1175.67 444 1295 2.000 10000.000 0.000 1.505
57 171.00 1175.67 425 1278 2.000 10000.000 0.000 1.505
58 174.00 1175.67 412 1318 2.000 10000.000 0.000 1.505
59 177.00 1175.67 422 1342 2.000 10000.000 0.000 1.505
60 180.00 1175.67 451 1320 2.000 10000.000 0.000 1.505
61 183.00 1175.67 408 1267 2.000 10000.000 0.000 1.505
62 186.00 1175.67 403 1276 2.000 10000.000 0.000 1.505
63 189.00 1175.67 418 1266 2.000 10000.000 0.000 1.505
64 192.00 1175.67 403 1290 2.000 10000.000 0.000 1.505
65 195.00 1175.67 445 1308 2.000 10000.000 0.000 1.505
66 198.00 1175.67 456 1324 2.000 10000.000 0.000 1.505
67 201.00 1175.67 423 1328 2.000 10000.000 0.000 1.505
68 204.00 1175.67 452 1410 2.000 10000.000 0.000 1.505
69 207.00 1175.67 440 1354 2.000 10000.000 0.000 1.505
70 210.00 1175.67 454 1258 2.000 10000.000 0.000 1.505
71 213.00 1175.67 428 1237 2.000 10000.000 0.000 1.505
72 216.00 1175.67 398 1135 2.000 10000.000 0.000 1.505
73 219.00 1175.67 397 1103 2.000 10000.000 0.000 1.505
74 222.00 1175.67 383 1045 2.000 10000.000 0.000 1.505
75 225.00 1175.67 382 929 2.000 10000.000 0.000 1.505
76 228.00 1175.67 369 957 2.000 10000.000 0.000 1.505
77 231.00 1175.67 375 872 2.000 10000.000 0.000 1.505
78 234.00 1175.67 373 878 2.000 10000.000 0.000 1.505
79 237.00 1175.67 376 873 2.000 10000.000 0.000 1.505
80 240.00 1175.67 402 926 2.000 10000.000 0.000 1.505
81 243.00 1175.67 356 916 2.000 10000.000 0.000 1.505
82 246.00 1175.67 446 1002 2.000 10000.000 0.000 1.505
83 249.00 1175.67 401 994 2.000 10000.000 0.000 1.505
84 252.00 1175.67 373 1042 2.000 10000.000 0.000 1.505
85 255.00 1175.67 422 1080 2.000 10000.000 0.000 1.505
86 258.00 1175.67 437 1255 2.000 10000.000 0.000 1.505
87 261.00 1175.67 448 1199 2.000 10000.000 0.000 1.505
88 264.00 1175.67 414 1299 2.000 10000.000 0.000 1.505
89 267.00 1175.67 449 1314 2.000 10000.000 0.000 1.505
90 270.00 1175.67 460 1277 2.000 10000.000 0.000 1.505
91 273.00 1175.67 420 1285 2.000 10000.000 0.000 1.505
92 276.00 1175.67 414 1308 2.000 10000.000 0.000 1.505
93 279.00 1175.67 428 1240 2.000 10000.000 0.000 1.505
94 282.00 1175.67 423 1238 2.000 10000.000 0.000 1.505
95 285.00 1175.67 432 1235 2.000 10000.000 0.000 1.505
96 288.00 1175.67 440 1336 2.000 10000.000 0.000 1.505
97 291.00 1175.67 413 1291 2.000 10000.000 0.000 1.505
98 294.00 1175.67 446 1334 2.000 10000.000 0.000 1.505
99 297.00 1175.67 441 1314 2.000 10000.000 0.000 1.505
100 300.00 1175.67 457 1381 2.000 10000.000 0.000 1.505
101 303.00 1175.67 355 1122 2.000 10000.000 0.000 1.505
