# BinNR microsec tot-time (s)  O-Beam AUX Ampl(V) f(Hz) phase(deg) chi(pos)
0 0.00 1200.00 202 603 2.000 10000.000 0.000 -0.110
1 3.00 1200.00 412 1248 2.000 10000.000 0.000 -0.110
2 6.00 1200.00 392 1196 2.000 10000.000 0.000 -0.110
3 9.00 1200.00 418 1223 2.000 10000.000 0.000 -0.110
4 12.00 1200.00 409 1186 2.000 10000.000 0.000 -0.110
5 15.00 1200.00 375 1106 2.000 10000.000 0.000 -0.110
6 18.00 1200.00 384 1091 2.000 10000.000 0.000 -0.110
7 21.00 1200.00 329 1025 2.000 10000.000 0.000 -0.110
8 24.00 1200.00 327 976 2.000 10000.000 0.000 -0.110
9 27.00 1200.00 340 882 2.000 10000.000 0.000 -0.110
10 30.00 1200.00 316 746 2.000 10000.000 0.000 -0.110
11 33.00 1200.00 308 800 2.000 10000.000 0.000 -0.110
12 36.00 1200.00 330 738 2.000 10000.000 0.000 -0.110
13 39.00 1200.00 312 709 2.000 10000.000 0.000 -0.110
14 42.00 1200.00 314 705 2.000 10000.000 0.000 -0.110
15 45.00 1200.00 270 768 2.000 10000.000 0.000 -0.110
16 48.00 1200.00 298 666 2.000 10000.000 0.000 -0.110
17 51.00 1200.00 330 699 2.000 10000.000 0.000 -0.110
18 54.00 1200.00 310 706 2.000 10000.000 0.000 -0.110
19 57.00 1200.00 342 708 2.000 10000.000 0.000 -0.110
20 60.00 1200.00 383 757 2.000 10000.000 0.000 -0.110
21 63.00 1200.00 358 820 2.000 10000.000 0.000 -0.110
22 66.00 1200.00 385 896 2.000 10000.000 0.000 -0.110
23 69.00 1200.00 376 895 2.000 10000.000 0.000 -0.110
24 72.00 1200.00 420 1081 2.000 10000.000 0.000 -0.110
25 75.00 1200.00 406 1038 2.000 10000.000 0.000 -0.110
26 78.00 1200.00 462 1123 2.000 10000.000 0.000 -0.110
27 81.00 1200.00 443 1138 2.000 10000.000 0.000 -0.110
28 84.00 1200.00 452 1187 2.000 10000.000 0.000 -0.110
29 87.00 1200.00 393 1221 2.000 10000.000 0.000 -0.110
30 90.00 1200.00 405 1258 2.000 10000.000 0.000 -0.110
31 93.00 1200.00 414 1247 2.000 10000.000 0.000 -0.110
32 96.00 1200.00 435 1362 2.000 10000.000 0.000 -0.110
33 99.00 1200.00 397 1247 2.000 10000.000 0.000 -0.110
34 102.00 1200.00 424 1269 2.000 10000.000 0.000 -0.110
35 105.00 1200.00 385 1271 2.000 10000.000 0.000 -0.110
36 108.00 1200.00 431 1201 2.000 10000.000 0.000 -0.110
37 111.00 1200.00 382 1249 2.000 10000.000 0.000 -0.110
38 114.00 1200.00 386 1248 2.000 10000.000 0.000 -0.110
39 117.00 1200.00 378 1165 2.000 10000.000 0.000 -0.110
40 120.00 1200.00 378 1190 2.000 10000.000 0.000 -0.110
41 123.00 1200.00 348 1068 2.000 10000.000 0.000 -0.110
42 126.00 1200.00 331 1089 2.000 10000.000 0.000 -0.110
43 129.00 1200.00 321 988 2.000 10000.000 0.000 -0.110
44 132.00 1200.00 345 850 2.000 10000.000 0.000 -0.110
45 135.00 1200.00 309 783 2.000 10000.000 0.000 -0.110
46 138.00 1200.00 327 731 2.000 10000.000 0.000 -0.110
47 141.00 1200.00 297 704 2.000 10000.000 0.000 -0.110
48 144.00 1200.00 320 663 2.000 10000.000 0.000 -0.110
49 147.00 1200.00 310 629 2.000 10000.000 0.000 -0.110
50 150.00 1200.00 299 613 2.000 10000.000 0.000 -0.110
51 153.00 1200.00 337 631 2.000 10000.000 0.000 -0.110
52 156.00 1200.00 322 675 2.000 10000.000 0.000 -0.110
53 159.00 1200.00 357 725 2.000 10000.000 0.000 -0.110
54 162.00 1200.00 357 705 2.000 10000.000 0.000 -0.110
55 165.00 1200.00 320 801 2.000 10000.000 0.000 -0.110
56 168.00 1200.00 386 904 2.000 10000.000 0.000 -0.110
57 171.00 1200.00 394 966 2.000 10000.000 0.000 -0.110
58 174.00 1200.00 407 1037 2.000 10000.000 0.000 -0.110
59 177.00 1200.00 418 1061 2.000 10000.000 0.000 -0.110
60 180.00 1200.00 390 1249 2.000 10000.000 0.000 -0.110
61 183.00 1200.00 451 1233 2.000 10000.000 0.000 -0.110
62 186.00 1200.00 391 1212 2.000 10000.000 0.000 -0.110
63 189.00 1200.00 433 1270 2.000 10000.000 0.000 -0.110
64 192.00 1200.00 460 1276 2.000 10000.000 0.000 -0.110
65 195.00 1200.00 404 1222 2.000 10000.000 0.000 -0.110
66 198.00 1200.00 434 1264 2.000 10000.000 0.000 -0.110
67 201.00 1200.00 423 1238 2.000 10000.000 0.000 -0.110
68 204.00 1200.00 434 1285 2.000 10000.000 0.000 -0.110
69 207.00 1200.00 432 1272 2.000 10000.000 0.000 -0.110
70 210.00 1200.00 378 1328 2.000 10000.000 0.000 -0.110
71 213.00 1200.00 457 1231 2.000 10000.000 0.000 -0.110
72 216.00 1200.00 392 1214 2.000 10000.000 0.000 -0.110
73 219.00 1200.00 393 1128 2.000 10000.000 0.000 -0.110
74 222.00 1200.00 365 1097 2.000 10000.000 0.000 -0.110
75 225.00 1200.00 336 1101 2.000 10000.000 0.000 -0.110
76 228.00 1200.00 348 1024 2.000 10000.000 0.000 -0.110
77 231.00 1200.00 334 913 2.000 10000.000 0.000 -0.110
78 234.00 1200.00 319 842 2.000 10000.000 0.000 -0.110
79 237.00 1200.00 328 780 2.000 10000.000 0.000 -0.110
80 240.00 1200.00 294 641 2.000 10000.000 0.000 -0.110
81 243.00 1200.00 306 618 2.000 10000.000 0.000 -0.110
82 246.00 1200.00 314 670 2.000 10000.000 0.000 -0.110
83 249.00 1200.00 265 625 2.000 10000.000 0.000 -0.110
84 252.00 1200.00 312 636 2.000 10000.000 0.000 -0.110
85 255.00 1200.00 314 682 2.000 10000.000 0.000 -0.110
86 258.00 1200.00 347 695 2.000 10000.000 0.000 -0.110
87 261.00 1200.00 334 692 2.000 10000.000 0.000 -0.110
88 264.00 1200.00 356 779 2.000 10000.000 0.000 -0.110
89 267.00 1200.00 375 853 2.000 10000.000 0.000 -0.110
90 270.00 1200.00 407 956 2.000 10000.000 0.000 -0.110
91 273.00 1200.00 403 1021 2.000 10000.000 0.000 -0.110
92 276.00 1200.00 427 1071 2.000 10000.000 0.000 -0.110
93 279.00 1200.00 402 1183 2.000 10000.000 0.000 -0.110
94 282.00 1200.00 428 1210 2.000 10000.000 0.000 -0.110
95 285.00 1200.00 434 1210 2.000 10000.000 0.000 -0.110
96 288.00 1200.00 410 1219 2.000 10000.000 0.000 -0.110
97 291.00 1200.00 435 1210 2.000 10000.000 0.000 -0.110
98 294.00 1200.00 450 1260 2.000 10000.000 0.000 -0.110
99 297.00 1200.00 412 1277 2.000 10000.000 0.000 -0.110
100 300.00 1200.00 432 1290 2.000 10000.000 0.000 -0.110
101 303.00 1200.00 352 1041 2.000 10000.000 0.000 -0.110
