# BinNR microsec tot-time (s)  O-Beam AUX Ampl(V) f(Hz) phase(deg) chi(pos)
0 0.00 1200.01 107 142 1.950 10000.000 0.000 -1.143
1 3.00 1200.01 222 295 1.950 10000.000 0.000 -1.143
2 6.00 1200.01 210 320 1.950 10000.000 0.000 -1.143
3 9.00 1200.01 227 306 1.950 10000.000 0.000 -1.143
4 12.00 1200.01 222 255 1.950 10000.000 0.000 -1.143
5 15.00 1200.01 219 254 1.950 10000.000 0.000 -1.143
6 18.00 1200.01 236 275 1.950 10000.000 0.000 -1.143
7 21.00 1200.01 214 213 1.950 10000.000 0.000 -1.143
8 24.00 1200.01 227 191 1.950 10000.000 0.000 -1.143
9 27.00 1200.01 225 208 1.950 10000.000 0.000 -1.143
10 30.00 1200.01 228 193 1.950 10000.000 0.000 -1.143
11 33.00 1200.01 235 218 1.950 10000.000 0.000 -1.143
12 36.00 1200.01 196 210 1.950 10000.000 0.000 -1.143
13 39.00 1200.01 215 210 1.950 10000.000 0.000 -1.143
14 42.00 1200.01 225 250 1.950 10000.000 0.000 -1.143
15 45.00 1200.01 196 292 1.950 10000.000 0.000 -1.143
16 48.00 1200.01 158 317 1.950 10000.000 0.000 -1.143
17 51.00 1200.01 142 349 1.950 10000.000 0.000 -1.143
18 54.00 1200.01 141 405 1.950 10000.000 0.000 -1.143
19 57.00 1200.01 129 480 1.950 10000.000 0.000 -1.143
20 60.00 1200.01 123 485 1.950 10000.000 0.000 -1.143
21 63.00 1200.01 120 531 1.950 10000.000 0.000 -1.143
22 66.00 1200.01 115 561 1.950 10000.000 0.000 -1.143
23 69.00 1200.01 108 549 1.950 10000.000 0.000 -1.143
24 72.00 1200.01 117 550 1.950 10000.000 0.000 -1.143
25 75.00 1200.01 115 548 1.950 10000.000 0.000 -1.143
26 78.00 1200.01 132 587 1.950 10000.000 0.000 -1.143
27 81.00 1200.01 152 556 1.950 10000.000 0.000 -1.143
28 84.00 1200.01 168 576 1.950 10000.000 0.000 -1.143
29 87.00 1200.01 173 544 1.950 10000.000 0.000 -1.143
30 90.00 1200.01 195 548 1.950 10000.000 0.000 -1.143
31 93.00 1200.01 184 597 1.950 10000.000 0.000 -1.143
32 96.00 1200.01 212 534 1.950 10000.000 0.000 -1.143
33 99.00 1200.01 203 528 1.950 10000.000 0.000 -1.143
34 102.00 1200.01 238 445 1.950 10000.000 0.000 -1.143
35 105.00 1200.01 223 389 1.950 10000.000 0.000 -1.143
36 108.00 1200.01 223 359 1.950 10000.000 0.000 -1.143
37 111.00 1200.01 221 272 1.950 10000.000 0.000 -1.143
38 114.00 1200.01 224 205 1.950 10000.000 0.000 -1.143
39 117.00 1200.01 228 170 1.950 10000.000 0.000 -1.143
40 120.00 1200.01 210 142 1.950 10000.000 0.000 -1.143
41 123.00 1200.01 232 117 1.950 10000.000 0.000 -1.143
42 126.00 1200.01 225 110 1.950 10000.000 0.000 -1.143
43 129.00 1200.01 228 89 1.950 10000.000 0.000 -1.143
44 132.00 1200.01 210 95 1.950 10000.000 0.000 -1.143
45 135.00 1200.01 194 144 1.950 10000.000 0.000 -1.143
46 138.00 1200.01 227 122 1.950 10000.000 0.000 -1.143
47 141.00 1200.01 172 157 1.950 10000.000 0.000 -1.143
48 144.00 1200.01 198 168 1.950 10000.000 0.000 -1.143
49 147.00 1200.01 171 216 1.950 10000.000 0.000 -1.143
50 150.00 1200.01 163 301 1.950 10000.000 0.000 -1.143
51 153.00 1200.01 139 344 1.950 10000.000 0.000 -1.143
52 156.00 1200.01 131 411 1.950 10000.000 0.000 -1.143
53 159.00 1200.01 124 447 1.950 10000.000 0.000 -1.143
54 162.00 1200.01 121 511 1.950 10000.000 0.000 -1.143
55 165.00 1200.01 112 539 1.950 10000.000 0.000 -1.143
56 168.00 1200.01 105 559 1.950 10000.000 0.000 -1.143
57 171.00 1200.01 106 535 1.950 10000.000 0.000 -1.143
58 174.00 1200.01 127 568 1.950 10000.000 0.000 -1.143
59 177.00 1200.01 111 582 1.950 10000.000 0.000 -1.143
60 180.00 1200.01 138 574 1.950 10000.000 0.000 -1.143
61 183.00 1200.01 161 600 1.950 10000.000 0.000 -1.143
62 186.00 1200.01 154 575 1.950 10000.000 0.000 -1.143
63 189.00 1200.01 194 573 1.950 10000.000 0.000 -1.143
64 192.00 1200.01 223 574 1.950 10000.000 0.000 -1.143
65 195.00 1200.01 198 527 1.950 10000.000 0.000 -1.143
66 198.00 1200.01 253 487 1.950 10000.000 0.000 -1.143
67 201.00 1200.01 201 450 1.950 10000.000 0.000 -1.143
68 204.00 1200.01 210 427 1.950 10000.000 0.000 -1.143
69 207.00 1200.01 213 342 1.950 10000.000 0.000 -1.143
70 210.00 1200.01 224 313 1.950 10000.000 0.000 -1.143
71 213.00 1200.01 204 231 1.950 10000.000 0.000 -1.143
72 216.00 1200.01 242 201 1.950 10000.000 0.000 -1.143
73 219.00 1200.01 228 152 1.950 10000.000 0.000 -1.143
74 222.00 1200.01 217 152 1.950 10000.000 0.000 -1.143
75 225.00 1200.01 210 128 1.950 10000.000 0.000 -1.143
76 228.00 1200.01 220 109 1.950 10000.000 0.000 -1.143
77 231.00 1200.01 211 91 1.950 10000.000 0.000 -1.143
78 234.00 1200.01 229 142 1.950 10000.000 0.000 -1.143
79 237.00 1200.01 195 134 1.950 10000.000 0.000 -1.143
80 240.00 1200.01 215 142 1.950 10000.000 0.000 -1.143
81 243.00 1200.01 220 218 1.950 10000.000 0.000 -1.143
82 246.00 1200.01 200 242 1.950 10000.000 0.000 -1.143
83 249.00 1200.01 195 274 1.950 10000.000 0.000 -1.143
84 252.00 1200.01 187 345 1.950 10000.000 0.000 -1.143
85 255.00 1200.01 180 411 1.950 10000.000 0.000 -1.143
86 258.00 1200.01 184 454 1.950 10000.000 0.000 -1.143
87 261.00 1200.01 165 542 1.950 10000.000 0.000 -1.143
88 264.00 1200.01 176 563 1.950 10000.000 0.000 -1.143
89 267.00 1200.01 161 534 1.950 10000.000 0.000 -1.143
90 270.00 1200.01 177 584 1.950 10000.000 0.000 -1.143
91 273.00 1200.01 188 529 1.950 10000.000 0.000 -1.143
92 276.00 1200.01 191 588 1.950 10000.000 0.000 -1.143
93 279.00 1200.01 188 573 1.950 10000.000 0.000 -1.143
94 282.00 1200.01 151 589 1.950 10000.000 0.000 -1.143
95 285.00 1200.01 162 566 1.950 10000.000 0.000 -1.143
96 288.00 1200.01 168 580 1.950 10000.000 0.000 -1.143
97 291.00 1200.01 163 564 1.950 10000.000 0.000 -1.143
98 294.00 1200.01 152 545 1.950 10000.000 0.000 -1.143
99 297.00 1200.01 156 523 1.950 10000.000 0.000 -1.143
100 300.00 1200.01 136 512 1.950 10000.000 0.000 -1.143
101 303.00 1200.01 152 439 1.950 10000.000 0.000 -1.143
102 306.00 1200.01 157 407 1.950 10000.000 0.000 -1.143
103 309.00 1200.01 151 292 1.950 10000.000 0.000 -1.143
104 312.00 1200.01 158 273 1.950 10000.000 0.000 -1.143
105 315.00 1200.01 205 241 1.950 10000.000 0.000 -1.143
106 318.00 1200.01 176 189 1.950 10000.000 0.000 -1.143
107 321.00 1200.01 174 136 1.950 10000.000 0.000 -1.143
108 324.00 1200.01 237 116 1.950 10000.000 0.000 -1.143
109 327.00 1200.01 199 124 1.950 10000.000 0.000 -1.143
110 330.00 1200.01 227 113 1.950 10000.000 0.000 -1.143
111 333.00 1200.01 220 111 1.950 10000.000 0.000 -1.143
112 336.00 1200.01 250 127 1.950 10000.000 0.000 -1.143
113 339.00 1200.01 238 157 1.950 10000.000 0.000 -1.143
114 342.00 1200.01 203 178 1.950 10000.000 0.000 -1.143
115 345.00 1200.01 232 220 1.950 10000.000 0.000 -1.143
116 348.00 1200.01 240 297 1.950 10000.000 0.000 -1.143
117 351.00 1200.01 200 298 1.950 10000.000 0.000 -1.143
118 354.00 1200.01 198 375 1.950 10000.000 0.000 -1.143
119 357.00 1200.01 236 441 1.950 10000.000 0.000 -1.143
120 360.00 1200.01 231 460 1.950 10000.000 0.000 -1.143
121 363.00 1200.01 231 555 1.950 10000.000 0.000 -1.143
122 366.00 1200.01 234 607 1.950 10000.000 0.000 -1.143
123 369.00 1200.01 231 543 1.950 10000.000 0.000 -1.143
124 372.00 1200.01 221 565 1.950 10000.000 0.000 -1.143
125 375.00 1200.01 211 601 1.950 10000.000 0.000 -1.143
126 378.00 1200.01 181 561 1.950 10000.000 0.000 -1.143
127 381.00 1200.01 156 582 1.950 10000.000 0.000 -1.143
128 384.00 1200.01 160 563 1.950 10000.000 0.000 -1.143
129 387.00 1200.01 122 529 1.950 10000.000 0.000 -1.143
130 390.00 1200.01 131 585 1.950 10000.000 0.000 -1.143
131 393.00 1200.01 117 568 1.950 10000.000 0.000 -1.143
132 396.00 1200.01 112 531 1.950 10000.000 0.000 -1.143
133 399.00 1200.01 129 494 1.950 10000.000 0.000 -1.143
134 402.00 1200.01 131 492 1.950 10000.000 0.000 -1.143
135 405.00 1200.01 111 396 1.950 10000.000 0.000 -1.143
136 408.00 1200.01 122 328 1.950 10000.000 0.000 -1.143
137 411.00 1200.01 149 287 1.950 10000.000 0.000 -1.143
138 414.00 1200.01 146 296 1.950 10000.000 0.000 -1.143
139 417.00 1200.01 159 269 1.950 10000.000 0.000 -1.143
140 420.00 1200.01 187 250 1.950 10000.000 0.000 -1.143
141 423.00 1200.01 192 281 1.950 10000.000 0.000 -1.143
