# BinNR microsec tot-time (s)  O-Beam AUX Ampl(V) f(Hz) phase(deg) chi(pos)
0 0.00 1500.00 95 343 1.520 10000.000 0.000 -0.330
1 3.00 1500.00 215 626 1.520 10000.000 0.000 -0.330
2 6.00 1500.00 236 652 1.520 10000.000 0.000 -0.330
3 9.00 1500.00 245 669 1.520 10000.000 0.000 -0.330
4 12.00 1500.00 246 601 1.520 10000.000 0.000 -0.330
5 15.00 1500.00 247 643 1.520 10000.000 0.000 -0.330
6 18.00 1500.00 249 588 1.520 10000.000 0.000 -0.330
7 21.00 1500.00 202 660 1.520 10000.000 0.000 -0.330
8 24.00 1500.00 240 673 1.520 10000.000 0.000 -0.330
9 27.00 1500.00 245 590 1.520 10000.000 0.000 -0.330
10 30.00 1500.00 229 667 1.520 10000.000 0.000 -0.330
11 33.00 1500.00 229 633 1.520 10000.000 0.000 -0.330
12 36.00 1500.00 218 620 1.520 10000.000 0.000 -0.330
13 39.00 1500.00 241 573 1.520 10000.000 0.000 -0.330
14 42.00 1500.00 212 617 1.520 10000.000 0.000 -0.330
15 45.00 1500.00 252 630 1.520 10000.000 0.000 -0.330
16 48.00 1500.00 207 614 1.520 10000.000 0.000 -0.330
17 51.00 1500.00 255 591 1.520 10000.000 0.000 -0.330
18 54.00 1500.00 273 641 1.520 10000.000 0.000 -0.330
19 57.00 1500.00 231 610 1.520 10000.000 0.000 -0.330
20 60.00 1500.00 236 648 1.520 10000.000 0.000 -0.330
21 63.00 1500.00 224 643 1.520 10000.000 0.000 -0.330
22 66.00 1500.00 213 625 1.520 10000.000 0.000 -0.330
23 69.00 1500.00 237 597 1.520 10000.000 0.000 -0.330
24 72.00 1500.00 258 635 1.520 10000.000 0.000 -0.330
25 75.00 1500.00 253 598 1.520 10000.000 0.000 -0.330
26 78.00 1500.00 240 627 1.520 10000.000 0.000 -0.330
27 81.00 1500.00 204 623 1.520 10000.000 0.000 -0.330
28 84.00 1500.00 224 640 1.520 10000.000 0.000 -0.330
29 87.00 1500.00 213 644 1.520 10000.000 0.000 -0.330
30 90.00 1500.00 215 647 1.520 10000.000 0.000 -0.330
31 93.00 1500.00 223 609 1.520 10000.000 0.000 -0.330
32 96.00 1500.00 232 578 1.520 10000.000 0.000 -0.330
33 99.00 1500.00 223 628 1.520 10000.000 0.000 -0.330
34 102.00 1500.00 228 610 1.520 10000.000 0.000 -0.330
35 105.00 1500.00 223 608 1.520 10000.000 0.000 -0.330
36 108.00 1500.00 222 616 1.520 10000.000 0.000 -0.330
37 111.00 1500.00 230 620 1.520 10000.000 0.000 -0.330
38 114.00 1500.00 217 602 1.520 10000.000 0.000 -0.330
39 117.00 1500.00 241 646 1.520 10000.000 0.000 -0.330
40 120.00 1500.00 228 613 1.520 10000.000 0.000 -0.330
41 123.00 1500.00 212 617 1.520 10000.000 0.000 -0.330
42 126.00 1500.00 197 641 1.520 10000.000 0.000 -0.330
43 129.00 1500.00 224 611 1.520 10000.000 0.000 -0.330
44 132.00 1500.00 224 668 1.520 10000.000 0.000 -0.330
45 135.00 1500.00 246 657 1.520 10000.000 0.000 -0.330
46 138.00 1500.00 211 607 1.520 10000.000 0.000 -0.330
47 141.00 1500.00 210 624 1.520 10000.000 0.000 -0.330
48 144.00 1500.00 211 631 1.520 10000.000 0.000 -0.330
49 147.00 1500.00 219 603 1.520 10000.000 0.000 -0.330
50 150.00 1500.00 212 619 1.520 10000.000 0.000 -0.330
51 153.00 1500.00 212 618 1.520 10000.000 0.000 -0.330
52 156.00 1500.00 244 635 1.520 10000.000 0.000 -0.330
53 159.00 1500.00 230 603 1.520 10000.000 0.000 -0.330
54 162.00 1500.00 243 659 1.520 10000.000 0.000 -0.330
55 165.00 1500.00 230 630 1.520 10000.000 0.000 -0.330
56 168.00 1500.00 241 569 1.520 10000.000 0.000 -0.330
57 171.00 1500.00 231 621 1.520 10000.000 0.000 -0.330
58 174.00 1500.00 222 645 1.520 10000.000 0.000 -0.330
59 177.00 1500.00 202 641 1.520 10000.000 0.000 -0.330
60 180.00 1500.00 234 616 1.520 10000.000 0.000 -0.330
61 183.00 1500.00 212 629 1.520 10000.000 0.000 -0.330
62 186.00 1500.00 235 659 1.520 10000.000 0.000 -0.330
63 189.00 1500.00 195 659 1.520 10000.000 0.000 -0.330
64 192.00 1500.00 195 677 1.520 10000.000 0.000 -0.330
65 195.00 1500.00 235 593 1.520 10000.000 0.000 -0.330
66 198.00 1500.00 216 616 1.520 10000.000 0.000 -0.330
67 201.00 1500.00 217 659 1.520 10000.000 0.000 -0.330
68 204.00 1500.00 225 626 1.520 10000.000 0.000 -0.330
69 207.00 1500.00 216 624 1.520 10000.000 0.000 -0.330
70 210.00 1500.00 249 602 1.520 10000.000 0.000 -0.330
71 213.00 1500.00 256 638 1.520 10000.000 0.000 -0.330
72 216.00 1500.00 245 687 1.520 10000.000 0.000 -0.330
73 219.00 1500.00 260 626 1.520 10000.000 0.000 -0.330
74 222.00 1500.00 238 630 1.520 10000.000 0.000 -0.330
75 225.00 1500.00 232 610 1.520 10000.000 0.000 -0.330
76 228.00 1500.00 227 616 1.520 10000.000 0.000 -0.330
77 231.00 1500.00 216 618 1.520 10000.000 0.000 -0.330
78 234.00 1500.00 245 622 1.520 10000.000 0.000 -0.330
79 237.00 1500.00 223 619 1.520 10000.000 0.000 -0.330
80 240.00 1500.00 200 611 1.520 10000.000 0.000 -0.330
81 243.00 1500.00 230 620 1.520 10000.000 0.000 -0.330
82 246.00 1500.00 249 640 1.520 10000.000 0.000 -0.330
83 249.00 1500.00 222 577 1.520 10000.000 0.000 -0.330
84 252.00 1500.00 237 582 1.520 10000.000 0.000 -0.330
85 255.00 1500.00 241 579 1.520 10000.000 0.000 -0.330
86 258.00 1500.00 229 646 1.520 10000.000 0.000 -0.330
87 261.00 1500.00 211 661 1.520 10000.000 0.000 -0.330
88 264.00 1500.00 220 648 1.520 10000.000 0.000 -0.330
89 267.00 1500.00 234 565 1.520 10000.000 0.000 -0.330
90 270.00 1500.00 228 625 1.520 10000.000 0.000 -0.330
91 273.00 1500.00 235 603 1.520 10000.000 0.000 -0.330
92 276.00 1500.00 228 620 1.520 10000.000 0.000 -0.330
93 279.00 1500.00 245 643 1.520 10000.000 0.000 -0.330
94 282.00 1500.00 239 661 1.520 10000.000 0.000 -0.330
95 285.00 1500.00 247 617 1.520 10000.000 0.000 -0.330
96 288.00 1500.00 231 641 1.520 10000.000 0.000 -0.330
97 291.00 1500.00 237 607 1.520 10000.000 0.000 -0.330
98 294.00 1500.00 240 668 1.520 10000.000 0.000 -0.330
99 297.00 1500.00 244 602 1.520 10000.000 0.000 -0.330
100 300.00 1500.00 268 638 1.520 10000.000 0.000 -0.330
101 303.00 1500.00 230 607 1.520 10000.000 0.000 -0.330
102 306.00 1500.00 250 607 1.520 10000.000 0.000 -0.330
103 309.00 1500.00 216 631 1.520 10000.000 0.000 -0.330
104 312.00 1500.00 225 624 1.520 10000.000 0.000 -0.330
105 315.00 1500.00 240 676 1.520 10000.000 0.000 -0.330
106 318.00 1500.00 231 647 1.520 10000.000 0.000 -0.330
107 321.00 1500.00 211 635 1.520 10000.000 0.000 -0.330
108 324.00 1500.00 216 633 1.520 10000.000 0.000 -0.330
109 327.00 1500.00 222 626 1.520 10000.000 0.000 -0.330
110 330.00 1500.00 251 576 1.520 10000.000 0.000 -0.330
111 333.00 1500.00 237 613 1.520 10000.000 0.000 -0.330
112 336.00 1500.00 239 624 1.520 10000.000 0.000 -0.330
113 339.00 1500.00 214 570 1.520 10000.000 0.000 -0.330
114 342.00 1500.00 226 638 1.520 10000.000 0.000 -0.330
115 345.00 1500.00 224 663 1.520 10000.000 0.000 -0.330
116 348.00 1500.00 202 601 1.520 10000.000 0.000 -0.330
117 351.00 1500.00 234 661 1.520 10000.000 0.000 -0.330
118 354.00 1500.00 249 633 1.520 10000.000 0.000 -0.330
119 357.00 1500.00 227 630 1.520 10000.000 0.000 -0.330
120 360.00 1500.00 239 651 1.520 10000.000 0.000 -0.330
121 363.00 1500.00 223 629 1.520 10000.000 0.000 -0.330
122 366.00 1500.00 222 586 1.520 10000.000 0.000 -0.330
123 369.00 1500.00 209 649 1.520 10000.000 0.000 -0.330
124 372.00 1500.00 237 602 1.520 10000.000 0.000 -0.330
125 375.00 1500.00 222 646 1.520 10000.000 0.000 -0.330
126 378.00 1500.00 196 645 1.520 10000.000 0.000 -0.330
127 381.00 1500.00 219 585 1.520 10000.000 0.000 -0.330
128 384.00 1500.00 240 581 1.520 10000.000 0.000 -0.330
129 387.00 1500.00 236 643 1.520 10000.000 0.000 -0.330
130 390.00 1500.00 219 661 1.520 10000.000 0.000 -0.330
131 393.00 1500.00 205 605 1.520 10000.000 0.000 -0.330
132 396.00 1500.00 233 619 1.520 10000.000 0.000 -0.330
133 399.00 1500.00 237 597 1.520 10000.000 0.000 -0.330
134 402.00 1500.00 218 668 1.520 10000.000 0.000 -0.330
135 405.00 1500.00 224 572 1.520 10000.000 0.000 -0.330
136 408.00 1500.00 237 630 1.520 10000.000 0.000 -0.330
137 411.00 1500.00 194 607 1.520 10000.000 0.000 -0.330
138 414.00 1500.00 218 615 1.520 10000.000 0.000 -0.330
139 417.00 1500.00 236 592 1.520 10000.000 0.000 -0.330
140 420.00 1500.00 254 615 1.520 10000.000 0.000 -0.330
141 423.00 1500.00 221 614 1.520 10000.000 0.000 -0.330
142 426.00 1500.00 230 666 1.520 10000.000 0.000 -0.330
143 429.00 1500.00 229 615 1.520 10000.000 0.000 -0.330
144 432.00 1500.00 236 608 1.520 10000.000 0.000 -0.330
