# BinNR microsec tot-time (s)  O-Beam AUX Ampl(V) f(Hz) phase(deg) chi(pos)
0 0.00 1500.02 179 389 1.520 10000.000 0.000 0.670
1 3.00 1500.02 306 806 1.520 10000.000 0.000 0.670
2 6.00 1500.02 293 806 1.520 10000.000 0.000 0.670
3 9.00 1500.02 295 790 1.520 10000.000 0.000 0.670
4 12.00 1500.02 289 789 1.520 10000.000 0.000 0.670
5 15.00 1500.02 296 729 1.520 10000.000 0.000 0.670
6 18.00 1500.02 278 750 1.520 10000.000 0.000 0.670
7 21.00 1500.02 327 796 1.520 10000.000 0.000 0.670
8 24.00 1500.02 307 793 1.520 10000.000 0.000 0.670
9 27.00 1500.02 297 788 1.520 10000.000 0.000 0.670
10 30.00 1500.02 302 774 1.520 10000.000 0.000 0.670
11 33.00 1500.02 296 803 1.520 10000.000 0.000 0.670
12 36.00 1500.02 337 820 1.520 10000.000 0.000 0.670
13 39.00 1500.02 295 784 1.520 10000.000 0.000 0.670
14 42.00 1500.02 305 799 1.520 10000.000 0.000 0.670
15 45.00 1500.02 301 777 1.520 10000.000 0.000 0.670
16 48.00 1500.02 315 806 1.520 10000.000 0.000 0.670
17 51.00 1500.02 311 777 1.520 10000.000 0.000 0.670
18 54.00 1500.02 279 838 1.520 10000.000 0.000 0.670
19 57.00 1500.02 300 783 1.520 10000.000 0.000 0.670
20 60.00 1500.02 282 717 1.520 10000.000 0.000 0.670
21 63.00 1500.02 288 780 1.520 10000.000 0.000 0.670
22 66.00 1500.02 307 801 1.520 10000.000 0.000 0.670
23 69.00 1500.02 285 797 1.520 10000.000 0.000 0.670
24 72.00 1500.02 287 842 1.520 10000.000 0.000 0.670
25 75.00 1500.02 300 811 1.520 10000.000 0.000 0.670
26 78.00 1500.02 320 854 1.520 10000.000 0.000 0.670
27 81.00 1500.02 272 784 1.520 10000.000 0.000 0.670
28 84.00 1500.02 282 789 1.520 10000.000 0.000 0.670
29 87.00 1500.02 308 789 1.520 10000.000 0.000 0.670
30 90.00 1500.02 282 795 1.520 10000.000 0.000 0.670
31 93.00 1500.02 311 773 1.520 10000.000 0.000 0.670
32 96.00 1500.02 309 850 1.520 10000.000 0.000 0.670
33 99.00 1500.02 284 821 1.520 10000.000 0.000 0.670
34 102.00 1500.02 336 781 1.520 10000.000 0.000 0.670
35 105.00 1500.02 321 758 1.520 10000.000 0.000 0.670
36 108.00 1500.02 278 840 1.520 10000.000 0.000 0.670
37 111.00 1500.02 316 776 1.520 10000.000 0.000 0.670
38 114.00 1500.02 308 802 1.520 10000.000 0.000 0.670
39 117.00 1500.02 310 787 1.520 10000.000 0.000 0.670
40 120.00 1500.02 320 873 1.520 10000.000 0.000 0.670
41 123.00 1500.02 294 824 1.520 10000.000 0.000 0.670
42 126.00 1500.02 305 795 1.520 10000.000 0.000 0.670
43 129.00 1500.02 322 799 1.520 10000.000 0.000 0.670
44 132.00 1500.02 301 785 1.520 10000.000 0.000 0.670
45 135.00 1500.02 314 769 1.520 10000.000 0.000 0.670
46 138.00 1500.02 333 806 1.520 10000.000 0.000 0.670
47 141.00 1500.02 301 866 1.520 10000.000 0.000 0.670
48 144.00 1500.02 309 801 1.520 10000.000 0.000 0.670
49 147.00 1500.02 317 782 1.520 10000.000 0.000 0.670
50 150.00 1500.02 263 798 1.520 10000.000 0.000 0.670
51 153.00 1500.02 271 777 1.520 10000.000 0.000 0.670
52 156.00 1500.02 308 816 1.520 10000.000 0.000 0.670
53 159.00 1500.02 301 787 1.520 10000.000 0.000 0.670
54 162.00 1500.02 294 810 1.520 10000.000 0.000 0.670
55 165.00 1500.02 293 795 1.520 10000.000 0.000 0.670
56 168.00 1500.02 295 799 1.520 10000.000 0.000 0.670
57 171.00 1500.02 295 758 1.520 10000.000 0.000 0.670
58 174.00 1500.02 287 823 1.520 10000.000 0.000 0.670
59 177.00 1500.02 303 786 1.520 10000.000 0.000 0.670
60 180.00 1500.02 293 810 1.520 10000.000 0.000 0.670
61 183.00 1500.02 316 745 1.520 10000.000 0.000 0.670
62 186.00 1500.02 315 776 1.520 10000.000 0.000 0.670
63 189.00 1500.02 301 764 1.520 10000.000 0.000 0.670
64 192.00 1500.02 286 834 1.520 10000.000 0.000 0.670
65 195.00 1500.02 260 816 1.520 10000.000 0.000 0.670
66 198.00 1500.02 316 789 1.520 10000.000 0.000 0.670
67 201.00 1500.02 285 748 1.520 10000.000 0.000 0.670
68 204.00 1500.02 282 787 1.520 10000.000 0.000 0.670
69 207.00 1500.02 296 806 1.520 10000.000 0.000 0.670
70 210.00 1500.02 293 799 1.520 10000.000 0.000 0.670
71 213.00 1500.02 304 826 1.520 10000.000 0.000 0.670
72 216.00 1500.02 319 804 1.520 10000.000 0.000 0.670
73 219.00 1500.02 305 775 1.520 10000.000 0.000 0.670
74 222.00 1500.02 346 775 1.520 10000.000 0.000 0.670
75 225.00 1500.02 331 781 1.520 10000.000 0.000 0.670
76 228.00 1500.02 318 777 1.520 10000.000 0.000 0.670
77 231.00 1500.02 285 823 1.520 10000.000 0.000 0.670
78 234.00 1500.02 311 844 1.520 10000.000 0.000 0.670
79 237.00 1500.02 298 819 1.520 10000.000 0.000 0.670
80 240.00 1500.02 278 797 1.520 10000.000 0.000 0.670
81 243.00 1500.02 314 781 1.520 10000.000 0.000 0.670
82 246.00 1500.02 339 858 1.520 10000.000 0.000 0.670
83 249.00 1500.02 325 810 1.520 10000.000 0.000 0.670
84 252.00 1500.02 326 872 1.520 10000.000 0.000 0.670
85 255.00 1500.02 291 750 1.520 10000.000 0.000 0.670
86 258.00 1500.02 311 782 1.520 10000.000 0.000 0.670
87 261.00 1500.02 303 856 1.520 10000.000 0.000 0.670
88 264.00 1500.02 297 829 1.520 10000.000 0.000 0.670
89 267.00 1500.02 292 778 1.520 10000.000 0.000 0.670
90 270.00 1500.02 314 783 1.520 10000.000 0.000 0.670
91 273.00 1500.02 284 806 1.520 10000.000 0.000 0.670
92 276.00 1500.02 313 849 1.520 10000.000 0.000 0.670
93 279.00 1500.02 304 794 1.520 10000.000 0.000 0.670
94 282.00 1500.02 332 791 1.520 10000.000 0.000 0.670
95 285.00 1500.02 330 791 1.520 10000.000 0.000 0.670
96 288.00 1500.02 294 788 1.520 10000.000 0.000 0.670
97 291.00 1500.02 350 798 1.520 10000.000 0.000 0.670
98 294.00 1500.02 309 818 1.520 10000.000 0.000 0.670
99 297.00 1500.02 329 768 1.520 10000.000 0.000 0.670
100 300.00 1500.02 301 788 1.520 10000.000 0.000 0.670
101 303.00 1500.02 306 778 1.520 10000.000 0.000 0.670
102 306.00 1500.02 312 793 1.520 10000.000 0.000 0.670
103 309.00 1500.02 293 746 1.520 10000.000 0.000 0.670
104 312.00 1500.02 332 794 1.520 10000.000 0.000 0.670
105 315.00 1500.02 300 783 1.520 10000.000 0.000 0.670
106 318.00 1500.02 289 794 1.520 10000.000 0.000 0.670
107 321.00 1500.02 313 830 1.520 10000.000 0.000 0.670
108 324.00 1500.02 336 793 1.520 10000.000 0.000 0.670
109 327.00 1500.02 316 769 1.520 10000.000 0.000 0.670
110 330.00 1500.02 338 789 1.520 10000.000 0.000 0.670
111 333.00 1500.02 333 728 1.520 10000.000 0.000 0.670
112 336.00 1500.02 308 788 1.520 10000.000 0.000 0.670
113 339.00 1500.02 335 783 1.520 10000.000 0.000 0.670
114 342.00 1500.02 292 784 1.520 10000.000 0.000 0.670
115 345.00 1500.02 326 780 1.520 10000.000 0.000 0.670
116 348.00 1500.02 284 788 1.520 10000.000 0.000 0.670
117 351.00 1500.02 279 710 1.520 10000.000 0.000 0.670
118 354.00 1500.02 303 845 1.520 10000.000 0.000 0.670
119 357.00 1500.02 312 773 1.520 10000.000 0.000 0.670
120 360.00 1500.02 335 803 1.520 10000.000 0.000 0.670
121 363.00 1500.02 273 806 1.520 10000.000 0.000 0.670
122 366.00 1500.02 301 798 1.520 10000.000 0.000 0.670
123 369.00 1500.02 319 788 1.520 10000.000 0.000 0.670
124 372.00 1500.02 298 770 1.520 10000.000 0.000 0.670
125 375.00 1500.02 267 775 1.520 10000.000 0.000 0.670
126 378.00 1500.02 280 777 1.520 10000.000 0.000 0.670
127 381.00 1500.02 313 725 1.520 10000.000 0.000 0.670
128 384.00 1500.02 310 816 1.520 10000.000 0.000 0.670
129 387.00 1500.02 291 791 1.520 10000.000 0.000 0.670
130 390.00 1500.02 284 757 1.520 10000.000 0.000 0.670
131 393.00 1500.02 295 823 1.520 10000.000 0.000 0.670
132 396.00 1500.02 322 819 1.520 10000.000 0.000 0.670
133 399.00 1500.02 300 784 1.520 10000.000 0.000 0.670
134 402.00 1500.02 290 804 1.520 10000.000 0.000 0.670
135 405.00 1500.02 336 772 1.520 10000.000 0.000 0.670
136 408.00 1500.02 302 775 1.520 10000.000 0.000 0.670
137 411.00 1500.02 298 802 1.520 10000.000 0.000 0.670
138 414.00 1500.02 310 853 1.520 10000.000 0.000 0.670
139 417.00 1500.02 327 776 1.520 10000.000 0.000 0.670
140 420.00 1500.02 255 818 1.520 10000.000 0.000 0.670
141 423.00 1500.02 321 743 1.520 10000.000 0.000 0.670
142 426.00 1500.02 292 806 1.520 10000.000 0.000 0.670
143 429.00 1500.02 292 765 1.520 10000.000 0.000 0.670
144 432.00 1500.02 302 848 1.520 10000.000 0.000 0.670
