# BinNR microsec tot-time (s)  O-Beam AUX Ampl(V) f(Hz) phase(deg) chi(pos)
0 0.00 1500.01 86 97 1.520 10000.000 0.000 1.154
1 3.00 1500.01 148 201 1.520 10000.000 0.000 1.154
2 6.00 1500.01 176 185 1.520 10000.000 0.000 1.154
3 9.00 1500.01 154 195 1.520 10000.000 0.000 1.154
4 12.00 1500.01 160 194 1.520 10000.000 0.000 1.154
5 15.00 1500.01 139 169 1.520 10000.000 0.000 1.154
6 18.00 1500.01 144 223 1.520 10000.000 0.000 1.154
7 21.00 1500.01 172 167 1.520 10000.000 0.000 1.154
8 24.00 1500.01 168 237 1.520 10000.000 0.000 1.154
9 27.00 1500.01 136 211 1.520 10000.000 0.000 1.154
10 30.00 1500.01 155 212 1.520 10000.000 0.000 1.154
11 33.00 1500.01 148 197 1.520 10000.000 0.000 1.154
12 36.00 1500.01 143 232 1.520 10000.000 0.000 1.154
13 39.00 1500.01 152 216 1.520 10000.000 0.000 1.154
14 42.00 1500.01 136 202 1.520 10000.000 0.000 1.154
15 45.00 1500.01 163 193 1.520 10000.000 0.000 1.154
16 48.00 1500.01 182 233 1.520 10000.000 0.000 1.154
17 51.00 1500.01 165 217 1.520 10000.000 0.000 1.154
18 54.00 1500.01 137 191 1.520 10000.000 0.000 1.154
19 57.00 1500.01 169 201 1.520 10000.000 0.000 1.154
20 60.00 1500.01 176 246 1.520 10000.000 0.000 1.154
21 63.00 1500.01 151 201 1.520 10000.000 0.000 1.154
22 66.00 1500.01 174 213 1.520 10000.000 0.000 1.154
23 69.00 1500.01 137 200 1.520 10000.000 0.000 1.154
24 72.00 1500.01 177 212 1.520 10000.000 0.000 1.154
25 75.00 1500.01 159 204 1.520 10000.000 0.000 1.154
26 78.00 1500.01 160 215 1.520 10000.000 0.000 1.154
27 81.00 1500.01 133 224 1.520 10000.000 0.000 1.154
28 84.00 1500.01 164 216 1.520 10000.000 0.000 1.154
29 87.00 1500.01 137 223 1.520 10000.000 0.000 1.154
30 90.00 1500.01 145 208 1.520 10000.000 0.000 1.154
31 93.00 1500.01 156 206 1.520 10000.000 0.000 1.154
32 96.00 1500.01 148 214 1.520 10000.000 0.000 1.154
33 99.00 1500.01 151 199 1.520 10000.000 0.000 1.154
34 102.00 1500.01 151 211 1.520 10000.000 0.000 1.154
35 105.00 1500.01 148 217 1.520 10000.000 0.000 1.154
36 108.00 1500.01 167 208 1.520 10000.000 0.000 1.154
37 111.00 1500.01 156 250 1.520 10000.000 0.000 1.154
38 114.00 1500.01 170 197 1.520 10000.000 0.000 1.154
39 117.00 1500.01 146 207 1.520 10000.000 0.000 1.154
40 120.00 1500.01 158 217 1.520 10000.000 0.000 1.154
41 123.00 1500.01 169 215 1.520 10000.000 0.000 1.154
42 126.00 1500.01 150 246 1.520 10000.000 0.000 1.154
43 129.00 1500.01 157 226 1.520 10000.000 0.000 1.154
44 132.00 1500.01 152 214 1.520 10000.000 0.000 1.154
45 135.00 1500.01 155 213 1.520 10000.000 0.000 1.154
46 138.00 1500.01 173 209 1.520 10000.000 0.000 1.154
47 141.00 1500.01 142 218 1.520 10000.000 0.000 1.154
48 144.00 1500.01 162 215 1.520 10000.000 0.000 1.154
49 147.00 1500.01 144 212 1.520 10000.000 0.000 1.154
50 150.00 1500.01 153 230 1.520 10000.000 0.000 1.154
51 153.00 1500.01 170 230 1.520 10000.000 0.000 1.154
52 156.00 1500.01 176 225 1.520 10000.000 0.000 1.154
53 159.00 1500.01 171 192 1.520 10000.000 0.000 1.154
54 162.00 1500.01 160 222 1.520 10000.000 0.000 1.154
55 165.00 1500.01 166 220 1.520 10000.000 0.000 1.154
56 168.00 1500.01 153 226 1.520 10000.000 0.000 1.154
57 171.00 1500.01 141 222 1.520 10000.000 0.000 1.154
58 174.00 1500.01 172 220 1.520 10000.000 0.000 1.154
59 177.00 1500.01 152 205 1.520 10000.000 0.000 1.154
60 180.00 1500.01 140 207 1.520 10000.000 0.000 1.154
61 183.00 1500.01 151 204 1.520 10000.000 0.000 1.154
62 186.00 1500.01 160 221 1.520 10000.000 0.000 1.154
63 189.00 1500.01 169 228 1.520 10000.000 0.000 1.154
64 192.00 1500.01 173 220 1.520 10000.000 0.000 1.154
65 195.00 1500.01 180 227 1.520 10000.000 0.000 1.154
66 198.00 1500.01 150 215 1.520 10000.000 0.000 1.154
67 201.00 1500.01 149 237 1.520 10000.000 0.000 1.154
68 204.00 1500.01 179 205 1.520 10000.000 0.000 1.154
69 207.00 1500.01 152 224 1.520 10000.000 0.000 1.154
70 210.00 1500.01 184 229 1.520 10000.000 0.000 1.154
71 213.00 1500.01 163 229 1.520 10000.000 0.000 1.154
72 216.00 1500.01 185 216 1.520 10000.000 0.000 1.154
73 219.00 1500.01 146 207 1.520 10000.000 0.000 1.154
74 222.00 1500.01 165 256 1.520 10000.000 0.000 1.154
75 225.00 1500.01 161 214 1.520 10000.000 0.000 1.154
76 228.00 1500.01 158 189 1.520 10000.000 0.000 1.154
77 231.00 1500.01 153 231 1.520 10000.000 0.000 1.154
78 234.00 1500.01 168 238 1.520 10000.000 0.000 1.154
79 237.00 1500.01 169 238 1.520 10000.000 0.000 1.154
80 240.00 1500.01 152 199 1.520 10000.000 0.000 1.154
81 243.00 1500.01 167 195 1.520 10000.000 0.000 1.154
82 246.00 1500.01 165 211 1.520 10000.000 0.000 1.154
83 249.00 1500.01 171 189 1.520 10000.000 0.000 1.154
84 252.00 1500.01 169 239 1.520 10000.000 0.000 1.154
85 255.00 1500.01 140 215 1.520 10000.000 0.000 1.154
86 258.00 1500.01 169 196 1.520 10000.000 0.000 1.154
87 261.00 1500.01 153 197 1.520 10000.000 0.000 1.154
88 264.00 1500.01 164 181 1.520 10000.000 0.000 1.154
89 267.00 1500.01 156 233 1.520 10000.000 0.000 1.154
90 270.00 1500.01 168 203 1.520 10000.000 0.000 1.154
91 273.00 1500.01 172 207 1.520 10000.000 0.000 1.154
92 276.00 1500.01 154 230 1.520 10000.000 0.000 1.154
93 279.00 1500.01 142 226 1.520 10000.000 0.000 1.154
94 282.00 1500.01 139 186 1.520 10000.000 0.000 1.154
95 285.00 1500.01 154 219 1.520 10000.000 0.000 1.154
96 288.00 1500.01 145 203 1.520 10000.000 0.000 1.154
97 291.00 1500.01 163 235 1.520 10000.000 0.000 1.154
98 294.00 1500.01 119 194 1.520 10000.000 0.000 1.154
99 297.00 1500.01 152 228 1.520 10000.000 0.000 1.154
100 300.00 1500.01 142 235 1.520 10000.000 0.000 1.154
101 303.00 1500.01 153 226 1.520 10000.000 0.000 1.154
102 306.00 1500.01 158 229 1.520 10000.000 0.000 1.154
103 309.00 1500.01 157 185 1.520 10000.000 0.000 1.154
104 312.00 1500.01 178 222 1.520 10000.000 0.000 1.154
105 315.00 1500.01 154 199 1.520 10000.000 0.000 1.154
106 318.00 1500.01 167 236 1.520 10000.000 0.000 1.154
107 321.00 1500.01 165 207 1.520 10000.000 0.000 1.154
108 324.00 1500.01 168 235 1.520 10000.000 0.000 1.154
109 327.00 1500.01 156 246 1.520 10000.000 0.000 1.154
110 330.00 1500.01 140 205 1.520 10000.000 0.000 1.154
111 333.00 1500.01 164 218 1.520 10000.000 0.000 1.154
112 336.00 1500.01 173 223 1.520 10000.000 0.000 1.154
113 339.00 1500.01 171 213 1.520 10000.000 0.000 1.154
114 342.00 1500.01 150 230 1.520 10000.000 0.000 1.154
115 345.00 1500.01 161 209 1.520 10000.000 0.000 1.154
116 348.00 1500.01 186 236 1.520 10000.000 0.000 1.154
117 351.00 1500.01 135 219 1.520 10000.000 0.000 1.154
118 354.00 1500.01 160 206 1.520 10000.000 0.000 1.154
119 357.00 1500.01 160 238 1.520 10000.000 0.000 1.154
120 360.00 1500.01 166 236 1.520 10000.000 0.000 1.154
121 363.00 1500.01 156 203 1.520 10000.000 0.000 1.154
122 366.00 1500.01 180 209 1.520 10000.000 0.000 1.154
123 369.00 1500.01 147 237 1.520 10000.000 0.000 1.154
124 372.00 1500.01 153 202 1.520 10000.000 0.000 1.154
125 375.00 1500.01 145 232 1.520 10000.000 0.000 1.154
126 378.00 1500.01 164 246 1.520 10000.000 0.000 1.154
127 381.00 1500.01 157 208 1.520 10000.000 0.000 1.154
128 384.00 1500.01 171 258 1.520 10000.000 0.000 1.154
129 387.00 1500.01 170 212 1.520 10000.000 0.000 1.154
130 390.00 1500.01 154 206 1.520 10000.000 0.000 1.154
131 393.00 1500.01 157 200 1.520 10000.000 0.000 1.154
132 396.00 1500.01 176 227 1.520 10000.000 0.000 1.154
133 399.00 1500.01 134 182 1.520 10000.000 0.000 1.154
134 402.00 1500.01 154 223 1.520 10000.000 0.000 1.154
135 405.00 1500.01 175 222 1.520 10000.000 0.000 1.154
136 408.00 1500.01 138 226 1.520 10000.000 0.000 1.154
137 411.00 1500.01 149 236 1.520 10000.000 0.000 1.154
138 414.00 1500.01 164 206 1.520 10000.000 0.000 1.154
139 417.00 1500.01 155 211 1.520 10000.000 0.000 1.154
140 420.00 1500.01 158 221 1.520 10000.000 0.000 1.154
141 423.00 1500.01 153 204 1.520 10000.000 0.000 1.154
142 426.00 1500.01 139 263 1.520 10000.000 0.000 1.154
143 429.00 1500.01 167 216 1.520 10000.000 0.000 1.154
144 432.00 1500.01 177 211 1.520 10000.000 0.000 1.154
