# BinNR microsec tot-time (s)  O-Beam AUX Ampl(V) f(Hz) phase(deg) chi(pos)
0 0.00 1500.02 123 318 0.740 10000.000 0.000 -0.835
1 3.00 1500.02 237 616 0.740 10000.000 0.000 -0.835
2 6.00 1500.02 249 608 0.740 10000.000 0.000 -0.835
3 9.00 1500.02 220 573 0.740 10000.000 0.000 -0.835
4 12.00 1500.02 219 644 0.740 10000.000 0.000 -0.835
5 15.00 1500.02 231 636 0.740 10000.000 0.000 -0.835
6 18.00 1500.02 223 598 0.740 10000.000 0.000 -0.835
7 21.00 1500.02 233 592 0.740 10000.000 0.000 -0.835
8 24.00 1500.02 241 640 0.740 10000.000 0.000 -0.835
9 27.00 1500.02 240 589 0.740 10000.000 0.000 -0.835
10 30.00 1500.02 241 682 0.740 10000.000 0.000 -0.835
11 33.00 1500.02 254 623 0.740 10000.000 0.000 -0.835
12 36.00 1500.02 251 642 0.740 10000.000 0.000 -0.835
13 39.00 1500.02 245 648 0.740 10000.000 0.000 -0.835
14 42.00 1500.02 231 659 0.740 10000.000 0.000 -0.835
15 45.00 1500.02 228 624 0.740 10000.000 0.000 -0.835
16 48.00 1500.02 234 614 0.740 10000.000 0.000 -0.835
17 51.00 1500.02 267 565 0.740 10000.000 0.000 -0.835
18 54.00 1500.02 228 615 0.740 10000.000 0.000 -0.835
19 57.00 1500.02 204 603 0.740 10000.000 0.000 -0.835
20 60.00 1500.02 257 595 0.740 10000.000 0.000 -0.835
21 63.00 1500.02 261 620 0.740 10000.000 0.000 -0.835
22 66.00 1500.02 210 634 0.740 10000.000 0.000 -0.835
23 69.00 1500.02 234 628 0.740 10000.000 0.000 -0.835
24 72.00 1500.02 218 641 0.740 10000.000 0.000 -0.835
25 75.00 1500.02 213 631 0.740 10000.000 0.000 -0.835
26 78.00 1500.02 208 679 0.740 10000.000 0.000 -0.835
27 81.00 1500.02 221 673 0.740 10000.000 0.000 -0.835
28 84.00 1500.02 232 698 0.740 10000.000 0.000 -0.835
29 87.00 1500.02 234 642 0.740 10000.000 0.000 -0.835
30 90.00 1500.02 206 694 0.740 10000.000 0.000 -0.835
31 93.00 1500.02 201 630 0.740 10000.000 0.000 -0.835
32 96.00 1500.02 210 691 0.740 10000.000 0.000 -0.835
33 99.00 1500.02 256 637 0.740 10000.000 0.000 -0.835
34 102.00 1500.02 203 704 0.740 10000.000 0.000 -0.835
35 105.00 1500.02 217 639 0.740 10000.000 0.000 -0.835
36 108.00 1500.02 235 691 0.740 10000.000 0.000 -0.835
37 111.00 1500.02 232 695 0.740 10000.000 0.000 -0.835
38 114.00 1500.02 255 711 0.740 10000.000 0.000 -0.835
39 117.00 1500.02 233 702 0.740 10000.000 0.000 -0.835
40 120.00 1500.02 258 667 0.740 10000.000 0.000 -0.835
41 123.00 1500.02 245 583 0.740 10000.000 0.000 -0.835
42 126.00 1500.02 261 650 0.740 10000.000 0.000 -0.835
43 129.00 1500.02 231 624 0.740 10000.000 0.000 -0.835
44 132.00 1500.02 245 643 0.740 10000.000 0.000 -0.835
45 135.00 1500.02 245 557 0.740 10000.000 0.000 -0.835
46 138.00 1500.02 241 603 0.740 10000.000 0.000 -0.835
47 141.00 1500.02 225 618 0.740 10000.000 0.000 -0.835
48 144.00 1500.02 248 611 0.740 10000.000 0.000 -0.835
49 147.00 1500.02 219 586 0.740 10000.000 0.000 -0.835
50 150.00 1500.02 238 619 0.740 10000.000 0.000 -0.835
51 153.00 1500.02 232 570 0.740 10000.000 0.000 -0.835
52 156.00 1500.02 228 587 0.740 10000.000 0.000 -0.835
53 159.00 1500.02 254 585 0.740 10000.000 0.000 -0.835
54 162.00 1500.02 234 605 0.740 10000.000 0.000 -0.835
55 165.00 1500.02 243 655 0.740 10000.000 0.000 -0.835
56 168.00 1500.02 209 612 0.740 10000.000 0.000 -0.835
57 171.00 1500.02 220 655 0.740 10000.000 0.000 -0.835
58 174.00 1500.02 230 652 0.740 10000.000 0.000 -0.835
59 177.00 1500.02 210 680 0.740 10000.000 0.000 -0.835
60 180.00 1500.02 231 657 0.740 10000.000 0.000 -0.835
61 183.00 1500.02 225 734 0.740 10000.000 0.000 -0.835
62 186.00 1500.02 227 680 0.740 10000.000 0.000 -0.835
63 189.00 1500.02 209 725 0.740 10000.000 0.000 -0.835
64 192.00 1500.02 223 715 0.740 10000.000 0.000 -0.835
65 195.00 1500.02 215 690 0.740 10000.000 0.000 -0.835
66 198.00 1500.02 243 667 0.740 10000.000 0.000 -0.835
67 201.00 1500.02 206 659 0.740 10000.000 0.000 -0.835
68 204.00 1500.02 229 728 0.740 10000.000 0.000 -0.835
69 207.00 1500.02 209 638 0.740 10000.000 0.000 -0.835
70 210.00 1500.02 251 694 0.740 10000.000 0.000 -0.835
71 213.00 1500.02 233 654 0.740 10000.000 0.000 -0.835
72 216.00 1500.02 224 644 0.740 10000.000 0.000 -0.835
73 219.00 1500.02 258 675 0.740 10000.000 0.000 -0.835
74 222.00 1500.02 224 669 0.740 10000.000 0.000 -0.835
75 225.00 1500.02 244 632 0.740 10000.000 0.000 -0.835
76 228.00 1500.02 229 589 0.740 10000.000 0.000 -0.835
77 231.00 1500.02 239 630 0.740 10000.000 0.000 -0.835
78 234.00 1500.02 254 602 0.740 10000.000 0.000 -0.835
79 237.00 1500.02 248 593 0.740 10000.000 0.000 -0.835
80 240.00 1500.02 262 541 0.740 10000.000 0.000 -0.835
81 243.00 1500.02 215 599 0.740 10000.000 0.000 -0.835
82 246.00 1500.02 249 637 0.740 10000.000 0.000 -0.835
83 249.00 1500.02 241 583 0.740 10000.000 0.000 -0.835
84 252.00 1500.02 228 548 0.740 10000.000 0.000 -0.835
85 255.00 1500.02 222 574 0.740 10000.000 0.000 -0.835
86 258.00 1500.02 248 613 0.740 10000.000 0.000 -0.835
87 261.00 1500.02 232 602 0.740 10000.000 0.000 -0.835
88 264.00 1500.02 269 623 0.740 10000.000 0.000 -0.835
89 267.00 1500.02 239 611 0.740 10000.000 0.000 -0.835
90 270.00 1500.02 239 650 0.740 10000.000 0.000 -0.835
91 273.00 1500.02 255 648 0.740 10000.000 0.000 -0.835
92 276.00 1500.02 238 642 0.740 10000.000 0.000 -0.835
93 279.00 1500.02 221 633 0.740 10000.000 0.000 -0.835
94 282.00 1500.02 231 616 0.740 10000.000 0.000 -0.835
95 285.00 1500.02 212 662 0.740 10000.000 0.000 -0.835
96 288.00 1500.02 236 699 0.740 10000.000 0.000 -0.835
97 291.00 1500.02 223 729 0.740 10000.000 0.000 -0.835
98 294.00 1500.02 245 638 0.740 10000.000 0.000 -0.835
99 297.00 1500.02 241 727 0.740 10000.000 0.000 -0.835
100 300.00 1500.02 228 710 0.740 10000.000 0.000 -0.835
101 303.00 1500.02 267 658 0.740 10000.000 0.000 -0.835
102 306.00 1500.02 237 715 0.740 10000.000 0.000 -0.835
103 309.00 1500.02 229 701 0.740 10000.000 0.000 -0.835
104 312.00 1500.02 247 679 0.740 10000.000 0.000 -0.835
105 315.00 1500.02 213 623 0.740 10000.000 0.000 -0.835
106 318.00 1500.02 207 651 0.740 10000.000 0.000 -0.835
107 321.00 1500.02 219 634 0.740 10000.000 0.000 -0.835
108 324.00 1500.02 221 618 0.740 10000.000 0.000 -0.835
109 327.00 1500.02 217 620 0.740 10000.000 0.000 -0.835
110 330.00 1500.02 193 619 0.740 10000.000 0.000 -0.835
111 333.00 1500.02 218 568 0.740 10000.000 0.000 -0.835
112 336.00 1500.02 238 608 0.740 10000.000 0.000 -0.835
113 339.00 1500.02 243 619 0.740 10000.000 0.000 -0.835
114 342.00 1500.02 229 570 0.740 10000.000 0.000 -0.835
115 345.00 1500.02 243 538 0.740 10000.000 0.000 -0.835
116 348.00 1500.02 235 500 0.740 10000.000 0.000 -0.835
117 351.00 1500.02 215 547 0.740 10000.000 0.000 -0.835
118 354.00 1500.02 251 554 0.740 10000.000 0.000 -0.835
119 357.00 1500.02 282 601 0.740 10000.000 0.000 -0.835
120 360.00 1500.02 254 605 0.740 10000.000 0.000 -0.835
121 363.00 1500.02 245 630 0.740 10000.000 0.000 -0.835
122 366.00 1500.02 216 614 0.740 10000.000 0.000 -0.835
123 369.00 1500.02 238 602 0.740 10000.000 0.000 -0.835
124 372.00 1500.02 241 652 0.740 10000.000 0.000 -0.835
125 375.00 1500.02 254 632 0.740 10000.000 0.000 -0.835
126 378.00 1500.02 235 686 0.740 10000.000 0.000 -0.835
127 381.00 1500.02 242 663 0.740 10000.000 0.000 -0.835
128 384.00 1500.02 245 672 0.740 10000.000 0.000 -0.835
129 387.00 1500.02 218 671 0.740 10000.000 0.000 -0.835
130 390.00 1500.02 214 682 0.740 10000.000 0.000 -0.835
131 393.00 1500.02 238 638 0.740 10000.000 0.000 -0.835
132 396.00 1500.02 220 676 0.740 10000.000 0.000 -0.835
133 399.00 1500.02 239 671 0.740 10000.000 0.000 -0.835
134 402.00 1500.02 241 736 0.740 10000.000 0.000 -0.835
135 405.00 1500.02 222 658 0.740 10000.000 0.000 -0.835
136 408.00 1500.02 235 737 0.740 10000.000 0.000 -0.835
137 411.00 1500.02 224 675 0.740 10000.000 0.000 -0.835
138 414.00 1500.02 209 671 0.740 10000.000 0.000 -0.835
139 417.00 1500.02 214 679 0.740 10000.000 0.000 -0.835
140 420.00 1500.02 219 672 0.740 10000.000 0.000 -0.835
141 423.00 1500.02 207 646 0.740 10000.000 0.000 -0.835
142 426.00 1500.02 240 621 0.740 10000.000 0.000 -0.835
143 429.00 1500.02 216 651 0.740 10000.000 0.000 -0.835
144 432.00 1500.02 218 665 0.740 10000.000 0.000 -0.835
