# BinNR microsec tot-time (s)  O-Beam AUX Ampl(V) f(Hz) phase(deg) chi(pos)
0 0.00 1500.01 132 305 0.740 10000.000 0.000 1.165
1 3.00 1500.01 229 604 0.740 10000.000 0.000 1.165
2 6.00 1500.01 254 576 0.740 10000.000 0.000 1.165
3 9.00 1500.01 222 681 0.740 10000.000 0.000 1.165
4 12.00 1500.01 237 620 0.740 10000.000 0.000 1.165
5 15.00 1500.01 241 616 0.740 10000.000 0.000 1.165
6 18.00 1500.01 237 658 0.740 10000.000 0.000 1.165
7 21.00 1500.01 255 691 0.740 10000.000 0.000 1.165
8 24.00 1500.01 256 658 0.740 10000.000 0.000 1.165
9 27.00 1500.01 256 689 0.740 10000.000 0.000 1.165
10 30.00 1500.01 218 654 0.740 10000.000 0.000 1.165
11 33.00 1500.01 261 692 0.740 10000.000 0.000 1.165
12 36.00 1500.01 244 670 0.740 10000.000 0.000 1.165
13 39.00 1500.01 219 697 0.740 10000.000 0.000 1.165
14 42.00 1500.01 246 670 0.740 10000.000 0.000 1.165
15 45.00 1500.01 250 628 0.740 10000.000 0.000 1.165
16 48.00 1500.01 266 645 0.740 10000.000 0.000 1.165
17 51.00 1500.01 246 624 0.740 10000.000 0.000 1.165
18 54.00 1500.01 241 655 0.740 10000.000 0.000 1.165
19 57.00 1500.01 230 633 0.740 10000.000 0.000 1.165
20 60.00 1500.01 249 645 0.740 10000.000 0.000 1.165
21 63.00 1500.01 247 649 0.740 10000.000 0.000 1.165
22 66.00 1500.01 219 608 0.740 10000.000 0.000 1.165
23 69.00 1500.01 214 652 0.740 10000.000 0.000 1.165
24 72.00 1500.01 233 615 0.740 10000.000 0.000 1.165
25 75.00 1500.01 207 679 0.740 10000.000 0.000 1.165
26 78.00 1500.01 242 658 0.740 10000.000 0.000 1.165
27 81.00 1500.01 234 680 0.740 10000.000 0.000 1.165
28 84.00 1500.01 238 688 0.740 10000.000 0.000 1.165
29 87.00 1500.01 205 694 0.740 10000.000 0.000 1.165
30 90.00 1500.01 226 708 0.740 10000.000 0.000 1.165
31 93.00 1500.01 246 656 0.740 10000.000 0.000 1.165
32 96.00 1500.01 239 704 0.740 10000.000 0.000 1.165
33 99.00 1500.01 239 662 0.740 10000.000 0.000 1.165
34 102.00 1500.01 217 733 0.740 10000.000 0.000 1.165
35 105.00 1500.01 236 690 0.740 10000.000 0.000 1.165
36 108.00 1500.01 242 701 0.740 10000.000 0.000 1.165
37 111.00 1500.01 231 675 0.740 10000.000 0.000 1.165
38 114.00 1500.01 263 654 0.740 10000.000 0.000 1.165
39 117.00 1500.01 226 675 0.740 10000.000 0.000 1.165
40 120.00 1500.01 258 699 0.740 10000.000 0.000 1.165
41 123.00 1500.01 247 631 0.740 10000.000 0.000 1.165
42 126.00 1500.01 248 645 0.740 10000.000 0.000 1.165
43 129.00 1500.01 252 639 0.740 10000.000 0.000 1.165
44 132.00 1500.01 238 633 0.740 10000.000 0.000 1.165
45 135.00 1500.01 241 585 0.740 10000.000 0.000 1.165
46 138.00 1500.01 254 670 0.740 10000.000 0.000 1.165
47 141.00 1500.01 239 576 0.740 10000.000 0.000 1.165
48 144.00 1500.01 240 613 0.740 10000.000 0.000 1.165
49 147.00 1500.01 251 624 0.740 10000.000 0.000 1.165
50 150.00 1500.01 234 561 0.740 10000.000 0.000 1.165
51 153.00 1500.01 273 630 0.740 10000.000 0.000 1.165
52 156.00 1500.01 238 595 0.740 10000.000 0.000 1.165
53 159.00 1500.01 236 596 0.740 10000.000 0.000 1.165
54 162.00 1500.01 240 620 0.740 10000.000 0.000 1.165
55 165.00 1500.01 226 598 0.740 10000.000 0.000 1.165
56 168.00 1500.01 220 618 0.740 10000.000 0.000 1.165
57 171.00 1500.01 220 666 0.740 10000.000 0.000 1.165
58 174.00 1500.01 265 708 0.740 10000.000 0.000 1.165
59 177.00 1500.01 186 653 0.740 10000.000 0.000 1.165
60 180.00 1500.01 234 662 0.740 10000.000 0.000 1.165
61 183.00 1500.01 239 666 0.740 10000.000 0.000 1.165
62 186.00 1500.01 235 709 0.740 10000.000 0.000 1.165
63 189.00 1500.01 220 715 0.740 10000.000 0.000 1.165
64 192.00 1500.01 253 697 0.740 10000.000 0.000 1.165
65 195.00 1500.01 218 687 0.740 10000.000 0.000 1.165
66 198.00 1500.01 253 690 0.740 10000.000 0.000 1.165
67 201.00 1500.01 228 722 0.740 10000.000 0.000 1.165
68 204.00 1500.01 244 709 0.740 10000.000 0.000 1.165
69 207.00 1500.01 243 677 0.740 10000.000 0.000 1.165
70 210.00 1500.01 224 652 0.740 10000.000 0.000 1.165
71 213.00 1500.01 269 696 0.740 10000.000 0.000 1.165
72 216.00 1500.01 275 678 0.740 10000.000 0.000 1.165
73 219.00 1500.01 225 690 0.740 10000.000 0.000 1.165
74 222.00 1500.01 254 652 0.740 10000.000 0.000 1.165
75 225.00 1500.01 227 652 0.740 10000.000 0.000 1.165
76 228.00 1500.01 239 656 0.740 10000.000 0.000 1.165
77 231.00 1500.01 261 641 0.740 10000.000 0.000 1.165
78 234.00 1500.01 261 610 0.740 10000.000 0.000 1.165
79 237.00 1500.01 260 572 0.740 10000.000 0.000 1.165
80 240.00 1500.01 237 638 0.740 10000.000 0.000 1.165
81 243.00 1500.01 258 589 0.740 10000.000 0.000 1.165
82 246.00 1500.01 226 608 0.740 10000.000 0.000 1.165
83 249.00 1500.01 238 570 0.740 10000.000 0.000 1.165
84 252.00 1500.01 228 598 0.740 10000.000 0.000 1.165
85 255.00 1500.01 239 598 0.740 10000.000 0.000 1.165
86 258.00 1500.01 251 598 0.740 10000.000 0.000 1.165
87 261.00 1500.01 237 599 0.740 10000.000 0.000 1.165
88 264.00 1500.01 218 657 0.740 10000.000 0.000 1.165
89 267.00 1500.01 224 639 0.740 10000.000 0.000 1.165
90 270.00 1500.01 242 648 0.740 10000.000 0.000 1.165
91 273.00 1500.01 235 694 0.740 10000.000 0.000 1.165
92 276.00 1500.01 228 673 0.740 10000.000 0.000 1.165
93 279.00 1500.01 237 651 0.740 10000.000 0.000 1.165
94 282.00 1500.01 231 733 0.740 10000.000 0.000 1.165
95 285.00 1500.01 259 693 0.740 10000.000 0.000 1.165
96 288.00 1500.01 224 722 0.740 10000.000 0.000 1.165
97 291.00 1500.01 220 668 0.740 10000.000 0.000 1.165
98 294.00 1500.01 271 693 0.740 10000.000 0.000 1.165
99 297.00 1500.01 280 702 0.740 10000.000 0.000 1.165
100 300.00 1500.01 230 687 0.740 10000.000 0.000 1.165
101 303.00 1500.01 253 684 0.740 10000.000 0.000 1.165
102 306.00 1500.01 210 686 0.740 10000.000 0.000 1.165
103 309.00 1500.01 242 662 0.740 10000.000 0.000 1.165
104 312.00 1500.01 259 659 0.740 10000.000 0.000 1.165
105 315.00 1500.01 228 684 0.740 10000.000 0.000 1.165
106 318.00 1500.01 233 679 0.740 10000.000 0.000 1.165
107 321.00 1500.01 204 678 0.740 10000.000 0.000 1.165
108 324.00 1500.01 236 689 0.740 10000.000 0.000 1.165
109 327.00 1500.01 246 641 0.740 10000.000 0.000 1.165
110 330.00 1500.01 260 638 0.740 10000.000 0.000 1.165
111 333.00 1500.01 221 615 0.740 10000.000 0.000 1.165
112 336.00 1500.01 213 632 0.740 10000.000 0.000 1.165
113 339.00 1500.01 224 593 0.740 10000.000 0.000 1.165
114 342.00 1500.01 267 574 0.740 10000.000 0.000 1.165
115 345.00 1500.01 251 598 0.740 10000.000 0.000 1.165
116 348.00 1500.01 239 616 0.740 10000.000 0.000 1.165
117 351.00 1500.01 233 567 0.740 10000.000 0.000 1.165
118 354.00 1500.01 273 647 0.740 10000.000 0.000 1.165
119 357.00 1500.01 233 601 0.740 10000.000 0.000 1.165
120 360.00 1500.01 237 659 0.740 10000.000 0.000 1.165
121 363.00 1500.01 262 613 0.740 10000.000 0.000 1.165
122 366.00 1500.01 255 628 0.740 10000.000 0.000 1.165
123 369.00 1500.01 233 638 0.740 10000.000 0.000 1.165
124 372.00 1500.01 250 626 0.740 10000.000 0.000 1.165
125 375.00 1500.01 243 643 0.740 10000.000 0.000 1.165
126 378.00 1500.01 265 649 0.740 10000.000 0.000 1.165
127 381.00 1500.01 257 657 0.740 10000.000 0.000 1.165
128 384.00 1500.01 244 739 0.740 10000.000 0.000 1.165
129 387.00 1500.01 235 688 0.740 10000.000 0.000 1.165
130 390.00 1500.01 220 680 0.740 10000.000 0.000 1.165
131 393.00 1500.01 220 659 0.740 10000.000 0.000 1.165
132 396.00 1500.01 226 710 0.740 10000.000 0.000 1.165
133 399.00 1500.01 248 649 0.740 10000.000 0.000 1.165
134 402.00 1500.01 231 725 0.740 10000.000 0.000 1.165
135 405.00 1500.01 248 675 0.740 10000.000 0.000 1.165
136 408.00 1500.01 228 718 0.740 10000.000 0.000 1.165
137 411.00 1500.01 255 721 0.740 10000.000 0.000 1.165
138 414.00 1500.01 260 734 0.740 10000.000 0.000 1.165
139 417.00 1500.01 210 678 0.740 10000.000 0.000 1.165
140 420.00 1500.01 250 660 0.740 10000.000 0.000 1.165
141 423.00 1500.01 230 625 0.740 10000.000 0.000 1.165
142 426.00 1500.01 208 634 0.740 10000.000 0.000 1.165
143 429.00 1500.01 230 649 0.740 10000.000 0.000 1.165
144 432.00 1500.01 221 626 0.740 10000.000 0.000 1.165
