# BinNR microsec tot-time (s)  O-Beam AUX Ampl(V) f(Hz) phase(deg) chi(pos)
0 0.00 1500.00 132 341 0.740 10000.000 0.000 0.989
1 3.00 1500.00 260 694 0.740 10000.000 0.000 0.989
2 6.00 1500.00 278 643 0.740 10000.000 0.000 0.989
3 9.00 1500.00 263 708 0.740 10000.000 0.000 0.989
4 12.00 1500.00 256 684 0.740 10000.000 0.000 0.989
5 15.00 1500.00 249 698 0.740 10000.000 0.000 0.989
6 18.00 1500.00 261 719 0.740 10000.000 0.000 0.989
7 21.00 1500.00 206 724 0.740 10000.000 0.000 0.989
8 24.00 1500.00 256 744 0.740 10000.000 0.000 0.989
9 27.00 1500.00 220 638 0.740 10000.000 0.000 0.989
10 30.00 1500.00 245 698 0.740 10000.000 0.000 0.989
11 33.00 1500.00 250 687 0.740 10000.000 0.000 0.989
12 36.00 1500.00 229 732 0.740 10000.000 0.000 0.989
13 39.00 1500.00 250 732 0.740 10000.000 0.000 0.989
14 42.00 1500.00 249 669 0.740 10000.000 0.000 0.989
15 45.00 1500.00 263 683 0.740 10000.000 0.000 0.989
16 48.00 1500.00 230 669 0.740 10000.000 0.000 0.989
17 51.00 1500.00 239 698 0.740 10000.000 0.000 0.989
18 54.00 1500.00 254 676 0.740 10000.000 0.000 0.989
19 57.00 1500.00 240 672 0.740 10000.000 0.000 0.989
20 60.00 1500.00 258 704 0.740 10000.000 0.000 0.989
21 63.00 1500.00 215 704 0.740 10000.000 0.000 0.989
22 66.00 1500.00 248 697 0.740 10000.000 0.000 0.989
23 69.00 1500.00 235 720 0.740 10000.000 0.000 0.989
24 72.00 1500.00 234 706 0.740 10000.000 0.000 0.989
25 75.00 1500.00 259 651 0.740 10000.000 0.000 0.989
26 78.00 1500.00 235 774 0.740 10000.000 0.000 0.989
27 81.00 1500.00 266 644 0.740 10000.000 0.000 0.989
28 84.00 1500.00 267 691 0.740 10000.000 0.000 0.989
29 87.00 1500.00 243 711 0.740 10000.000 0.000 0.989
30 90.00 1500.00 272 667 0.740 10000.000 0.000 0.989
31 93.00 1500.00 218 648 0.740 10000.000 0.000 0.989
32 96.00 1500.00 243 645 0.740 10000.000 0.000 0.989
33 99.00 1500.00 226 710 0.740 10000.000 0.000 0.989
34 102.00 1500.00 273 699 0.740 10000.000 0.000 0.989
35 105.00 1500.00 262 666 0.740 10000.000 0.000 0.989
36 108.00 1500.00 247 734 0.740 10000.000 0.000 0.989
37 111.00 1500.00 235 700 0.740 10000.000 0.000 0.989
38 114.00 1500.00 265 701 0.740 10000.000 0.000 0.989
39 117.00 1500.00 245 679 0.740 10000.000 0.000 0.989
40 120.00 1500.00 266 720 0.740 10000.000 0.000 0.989
41 123.00 1500.00 220 677 0.740 10000.000 0.000 0.989
42 126.00 1500.00 228 652 0.740 10000.000 0.000 0.989
43 129.00 1500.00 256 739 0.740 10000.000 0.000 0.989
44 132.00 1500.00 251 680 0.740 10000.000 0.000 0.989
45 135.00 1500.00 265 680 0.740 10000.000 0.000 0.989
46 138.00 1500.00 203 709 0.740 10000.000 0.000 0.989
47 141.00 1500.00 220 720 0.740 10000.000 0.000 0.989
48 144.00 1500.00 226 677 0.740 10000.000 0.000 0.989
49 147.00 1500.00 238 653 0.740 10000.000 0.000 0.989
50 150.00 1500.00 245 656 0.740 10000.000 0.000 0.989
51 153.00 1500.00 233 691 0.740 10000.000 0.000 0.989
52 156.00 1500.00 254 594 0.740 10000.000 0.000 0.989
53 159.00 1500.00 264 650 0.740 10000.000 0.000 0.989
54 162.00 1500.00 256 710 0.740 10000.000 0.000 0.989
55 165.00 1500.00 242 709 0.740 10000.000 0.000 0.989
56 168.00 1500.00 255 730 0.740 10000.000 0.000 0.989
57 171.00 1500.00 245 688 0.740 10000.000 0.000 0.989
58 174.00 1500.00 220 709 0.740 10000.000 0.000 0.989
59 177.00 1500.00 238 708 0.740 10000.000 0.000 0.989
60 180.00 1500.00 246 687 0.740 10000.000 0.000 0.989
61 183.00 1500.00 211 668 0.740 10000.000 0.000 0.989
62 186.00 1500.00 251 719 0.740 10000.000 0.000 0.989
63 189.00 1500.00 209 663 0.740 10000.000 0.000 0.989
64 192.00 1500.00 209 683 0.740 10000.000 0.000 0.989
65 195.00 1500.00 265 709 0.740 10000.000 0.000 0.989
66 198.00 1500.00 228 671 0.740 10000.000 0.000 0.989
67 201.00 1500.00 221 661 0.740 10000.000 0.000 0.989
68 204.00 1500.00 246 746 0.740 10000.000 0.000 0.989
69 207.00 1500.00 226 638 0.740 10000.000 0.000 0.989
70 210.00 1500.00 237 715 0.740 10000.000 0.000 0.989
71 213.00 1500.00 266 731 0.740 10000.000 0.000 0.989
72 216.00 1500.00 241 696 0.740 10000.000 0.000 0.989
73 219.00 1500.00 237 686 0.740 10000.000 0.000 0.989
74 222.00 1500.00 252 690 0.740 10000.000 0.000 0.989
75 225.00 1500.00 260 681 0.740 10000.000 0.000 0.989
76 228.00 1500.00 234 666 0.740 10000.000 0.000 0.989
77 231.00 1500.00 213 693 0.740 10000.000 0.000 0.989
78 234.00 1500.00 243 668 0.740 10000.000 0.000 0.989
79 237.00 1500.00 218 683 0.740 10000.000 0.000 0.989
80 240.00 1500.00 243 687 0.740 10000.000 0.000 0.989
81 243.00 1500.00 229 675 0.740 10000.000 0.000 0.989
82 246.00 1500.00 246 644 0.740 10000.000 0.000 0.989
83 249.00 1500.00 258 661 0.740 10000.000 0.000 0.989
84 252.00 1500.00 252 736 0.740 10000.000 0.000 0.989
85 255.00 1500.00 255 672 0.740 10000.000 0.000 0.989
86 258.00 1500.00 219 674 0.740 10000.000 0.000 0.989
87 261.00 1500.00 236 690 0.740 10000.000 0.000 0.989
88 264.00 1500.00 232 684 0.740 10000.000 0.000 0.989
89 267.00 1500.00 226 659 0.740 10000.000 0.000 0.989
90 270.00 1500.00 242 743 0.740 10000.000 0.000 0.989
91 273.00 1500.00 228 741 0.740 10000.000 0.000 0.989
92 276.00 1500.00 242 706 0.740 10000.000 0.000 0.989
93 279.00 1500.00 239 708 0.740 10000.000 0.000 0.989
94 282.00 1500.00 232 711 0.740 10000.000 0.000 0.989
95 285.00 1500.00 247 730 0.740 10000.000 0.000 0.989
96 288.00 1500.00 231 678 0.740 10000.000 0.000 0.989
97 291.00 1500.00 258 679 0.740 10000.000 0.000 0.989
98 294.00 1500.00 294 727 0.740 10000.000 0.000 0.989
99 297.00 1500.00 227 678 0.740 10000.000 0.000 0.989
100 300.00 1500.00 241 693 0.740 10000.000 0.000 0.989
101 303.00 1500.00 253 667 0.740 10000.000 0.000 0.989
102 306.00 1500.00 245 727 0.740 10000.000 0.000 0.989
103 309.00 1500.00 248 696 0.740 10000.000 0.000 0.989
104 312.00 1500.00 278 763 0.740 10000.000 0.000 0.989
105 315.00 1500.00 231 693 0.740 10000.000 0.000 0.989
106 318.00 1500.00 236 692 0.740 10000.000 0.000 0.989
107 321.00 1500.00 211 706 0.740 10000.000 0.000 0.989
108 324.00 1500.00 268 734 0.740 10000.000 0.000 0.989
109 327.00 1500.00 231 679 0.740 10000.000 0.000 0.989
110 330.00 1500.00 267 700 0.740 10000.000 0.000 0.989
111 333.00 1500.00 233 687 0.740 10000.000 0.000 0.989
112 336.00 1500.00 266 713 0.740 10000.000 0.000 0.989
113 339.00 1500.00 261 689 0.740 10000.000 0.000 0.989
114 342.00 1500.00 265 689 0.740 10000.000 0.000 0.989
115 345.00 1500.00 248 677 0.740 10000.000 0.000 0.989
116 348.00 1500.00 256 694 0.740 10000.000 0.000 0.989
117 351.00 1500.00 229 689 0.740 10000.000 0.000 0.989
118 354.00 1500.00 230 669 0.740 10000.000 0.000 0.989
119 357.00 1500.00 232 725 0.740 10000.000 0.000 0.989
120 360.00 1500.00 242 664 0.740 10000.000 0.000 0.989
121 363.00 1500.00 239 680 0.740 10000.000 0.000 0.989
122 366.00 1500.00 203 721 0.740 10000.000 0.000 0.989
123 369.00 1500.00 228 700 0.740 10000.000 0.000 0.989
124 372.00 1500.00 258 700 0.740 10000.000 0.000 0.989
125 375.00 1500.00 239 685 0.740 10000.000 0.000 0.989
126 378.00 1500.00 199 677 0.740 10000.000 0.000 0.989
127 381.00 1500.00 253 689 0.740 10000.000 0.000 0.989
128 384.00 1500.00 230 723 0.740 10000.000 0.000 0.989
129 387.00 1500.00 258 692 0.740 10000.000 0.000 0.989
130 390.00 1500.00 267 661 0.740 10000.000 0.000 0.989
131 393.00 1500.00 230 654 0.740 10000.000 0.000 0.989
132 396.00 1500.00 247 694 0.740 10000.000 0.000 0.989
133 399.00 1500.00 251 698 0.740 10000.000 0.000 0.989
134 402.00 1500.00 231 695 0.740 10000.000 0.000 0.989
135 405.00 1500.00 227 701 0.740 10000.000 0.000 0.989
136 408.00 1500.00 246 669 0.740 10000.000 0.000 0.989
137 411.00 1500.00 251 757 0.740 10000.000 0.000 0.989
138 414.00 1500.00 238 720 0.740 10000.000 0.000 0.989
139 417.00 1500.00 245 661 0.740 10000.000 0.000 0.989
140 420.00 1500.00 247 715 0.740 10000.000 0.000 0.989
141 423.00 1500.00 214 674 0.740 10000.000 0.000 0.989
142 426.00 1500.00 262 706 0.740 10000.000 0.000 0.989
143 429.00 1500.00 250 677 0.740 10000.000 0.000 0.989
144 432.00 1500.00 250 641 0.740 10000.000 0.000 0.989
