# BinNR microsec tot-time (s)  O-Beam AUX Ampl(V) f(Hz) phase(deg) chi(pos)
0 0.00 1500.00 72 245 0.740 10000.000 0.000 0.341
1 3.00 1500.00 127 399 0.740 10000.000 0.000 0.341
2 6.00 1500.00 138 421 0.740 10000.000 0.000 0.341
3 9.00 1500.00 139 415 0.740 10000.000 0.000 0.341
4 12.00 1500.00 142 412 0.740 10000.000 0.000 0.341
5 15.00 1500.00 114 399 0.740 10000.000 0.000 0.341
6 18.00 1500.00 148 419 0.740 10000.000 0.000 0.341
7 21.00 1500.00 107 367 0.740 10000.000 0.000 0.341
8 24.00 1500.00 101 364 0.740 10000.000 0.000 0.341
9 27.00 1500.00 125 367 0.740 10000.000 0.000 0.341
10 30.00 1500.00 135 367 0.740 10000.000 0.000 0.341
11 33.00 1500.00 120 341 0.740 10000.000 0.000 0.341
12 36.00 1500.00 119 360 0.740 10000.000 0.000 0.341
13 39.00 1500.00 112 343 0.740 10000.000 0.000 0.341
14 42.00 1500.00 108 370 0.740 10000.000 0.000 0.341
15 45.00 1500.00 105 347 0.740 10000.000 0.000 0.341
16 48.00 1500.00 125 417 0.740 10000.000 0.000 0.341
17 51.00 1500.00 111 393 0.740 10000.000 0.000 0.341
18 54.00 1500.00 116 426 0.740 10000.000 0.000 0.341
19 57.00 1500.00 116 442 0.740 10000.000 0.000 0.341
20 60.00 1500.00 149 410 0.740 10000.000 0.000 0.341
21 63.00 1500.00 128 368 0.740 10000.000 0.000 0.341
22 66.00 1500.00 158 397 0.740 10000.000 0.000 0.341
23 69.00 1500.00 116 348 0.740 10000.000 0.000 0.341
24 72.00 1500.00 141 371 0.740 10000.000 0.000 0.341
25 75.00 1500.00 147 350 0.740 10000.000 0.000 0.341
26 78.00 1500.00 143 302 0.740 10000.000 0.000 0.341
27 81.00 1500.00 155 319 0.740 10000.000 0.000 0.341
28 84.00 1500.00 151 338 0.740 10000.000 0.000 0.341
29 87.00 1500.00 143 304 0.740 10000.000 0.000 0.341
30 90.00 1500.00 150 296 0.740 10000.000 0.000 0.341
31 93.00 1500.00 144 321 0.740 10000.000 0.000 0.341
32 96.00 1500.00 142 254 0.740 10000.000 0.000 0.341
33 99.00 1500.00 134 298 0.740 10000.000 0.000 0.341
34 102.00 1500.00 161 319 0.740 10000.000 0.000 0.341
35 105.00 1500.00 147 297 0.740 10000.000 0.000 0.341
36 108.00 1500.00 119 302 0.740 10000.000 0.000 0.341
37 111.00 1500.00 118 324 0.740 10000.000 0.000 0.341
38 114.00 1500.00 128 361 0.740 10000.000 0.000 0.341
39 117.00 1500.00 132 317 0.740 10000.000 0.000 0.341
40 120.00 1500.00 132 360 0.740 10000.000 0.000 0.341
41 123.00 1500.00 106 343 0.740 10000.000 0.000 0.341
42 126.00 1500.00 102 343 0.740 10000.000 0.000 0.341
43 129.00 1500.00 93 408 0.740 10000.000 0.000 0.341
44 132.00 1500.00 116 391 0.740 10000.000 0.000 0.341
45 135.00 1500.00 112 415 0.740 10000.000 0.000 0.341
46 138.00 1500.00 123 445 0.740 10000.000 0.000 0.341
47 141.00 1500.00 109 446 0.740 10000.000 0.000 0.341
48 144.00 1500.00 120 424 0.740 10000.000 0.000 0.341
49 147.00 1500.00 102 424 0.740 10000.000 0.000 0.341
50 150.00 1500.00 112 453 0.740 10000.000 0.000 0.341
51 153.00 1500.00 119 414 0.740 10000.000 0.000 0.341
52 156.00 1500.00 113 389 0.740 10000.000 0.000 0.341
53 159.00 1500.00 108 390 0.740 10000.000 0.000 0.341
54 162.00 1500.00 130 407 0.740 10000.000 0.000 0.341
55 165.00 1500.00 141 373 0.740 10000.000 0.000 0.341
56 168.00 1500.00 151 372 0.740 10000.000 0.000 0.341
57 171.00 1500.00 134 380 0.740 10000.000 0.000 0.341
58 174.00 1500.00 136 323 0.740 10000.000 0.000 0.341
59 177.00 1500.00 122 341 0.740 10000.000 0.000 0.341
60 180.00 1500.00 112 352 0.740 10000.000 0.000 0.341
61 183.00 1500.00 141 313 0.740 10000.000 0.000 0.341
62 186.00 1500.00 152 280 0.740 10000.000 0.000 0.341
63 189.00 1500.00 153 288 0.740 10000.000 0.000 0.341
64 192.00 1500.00 148 276 0.740 10000.000 0.000 0.341
65 195.00 1500.00 142 307 0.740 10000.000 0.000 0.341
66 198.00 1500.00 130 300 0.740 10000.000 0.000 0.341
67 201.00 1500.00 129 307 0.740 10000.000 0.000 0.341
68 204.00 1500.00 126 264 0.740 10000.000 0.000 0.341
69 207.00 1500.00 135 311 0.740 10000.000 0.000 0.341
70 210.00 1500.00 137 321 0.740 10000.000 0.000 0.341
71 213.00 1500.00 149 303 0.740 10000.000 0.000 0.341
72 216.00 1500.00 114 379 0.740 10000.000 0.000 0.341
73 219.00 1500.00 108 364 0.740 10000.000 0.000 0.341
74 222.00 1500.00 107 349 0.740 10000.000 0.000 0.341
75 225.00 1500.00 109 404 0.740 10000.000 0.000 0.341
76 228.00 1500.00 106 397 0.740 10000.000 0.000 0.341
77 231.00 1500.00 108 391 0.740 10000.000 0.000 0.341
78 234.00 1500.00 123 390 0.740 10000.000 0.000 0.341
79 237.00 1500.00 120 450 0.740 10000.000 0.000 0.341
80 240.00 1500.00 111 424 0.740 10000.000 0.000 0.341
81 243.00 1500.00 101 413 0.740 10000.000 0.000 0.341
82 246.00 1500.00 106 450 0.740 10000.000 0.000 0.341
83 249.00 1500.00 125 387 0.740 10000.000 0.000 0.341
84 252.00 1500.00 100 435 0.740 10000.000 0.000 0.341
85 255.00 1500.00 117 401 0.740 10000.000 0.000 0.341
86 258.00 1500.00 136 445 0.740 10000.000 0.000 0.341
87 261.00 1500.00 137 395 0.740 10000.000 0.000 0.341
88 264.00 1500.00 140 395 0.740 10000.000 0.000 0.341
89 267.00 1500.00 168 370 0.740 10000.000 0.000 0.341
90 270.00 1500.00 138 351 0.740 10000.000 0.000 0.341
91 273.00 1500.00 129 350 0.740 10000.000 0.000 0.341
92 276.00 1500.00 155 386 0.740 10000.000 0.000 0.341
93 279.00 1500.00 143 313 0.740 10000.000 0.000 0.341
94 282.00 1500.00 144 322 0.740 10000.000 0.000 0.341
95 285.00 1500.00 136 330 0.740 10000.000 0.000 0.341
96 288.00 1500.00 118 296 0.740 10000.000 0.000 0.341
97 291.00 1500.00 137 307 0.740 10000.000 0.000 0.341
98 294.00 1500.00 141 303 0.740 10000.000 0.000 0.341
99 297.00 1500.00 125 278 0.740 10000.000 0.000 0.341
100 300.00 1500.00 137 321 0.740 10000.000 0.000 0.341
101 303.00 1500.00 121 322 0.740 10000.000 0.000 0.341
102 306.00 1500.00 130 299 0.740 10000.000 0.000 0.341
103 309.00 1500.00 140 273 0.740 10000.000 0.000 0.341
104 312.00 1500.00 125 321 0.740 10000.000 0.000 0.341
105 315.00 1500.00 148 328 0.740 10000.000 0.000 0.341
106 318.00 1500.00 129 332 0.740 10000.000 0.000 0.341
107 321.00 1500.00 146 368 0.740 10000.000 0.000 0.341
108 324.00 1500.00 134 384 0.740 10000.000 0.000 0.341
109 327.00 1500.00 147 397 0.740 10000.000 0.000 0.341
110 330.00 1500.00 137 404 0.740 10000.000 0.000 0.341
111 333.00 1500.00 149 413 0.740 10000.000 0.000 0.341
112 336.00 1500.00 150 415 0.740 10000.000 0.000 0.341
113 339.00 1500.00 145 444 0.740 10000.000 0.000 0.341
114 342.00 1500.00 140 412 0.740 10000.000 0.000 0.341
115 345.00 1500.00 135 429 0.740 10000.000 0.000 0.341
116 348.00 1500.00 134 450 0.740 10000.000 0.000 0.341
117 351.00 1500.00 135 433 0.740 10000.000 0.000 0.341
118 354.00 1500.00 123 403 0.740 10000.000 0.000 0.341
119 357.00 1500.00 103 421 0.740 10000.000 0.000 0.341
120 360.00 1500.00 121 414 0.740 10000.000 0.000 0.341
121 363.00 1500.00 129 416 0.740 10000.000 0.000 0.341
122 366.00 1500.00 110 407 0.740 10000.000 0.000 0.341
123 369.00 1500.00 112 409 0.740 10000.000 0.000 0.341
124 372.00 1500.00 129 364 0.740 10000.000 0.000 0.341
125 375.00 1500.00 130 365 0.740 10000.000 0.000 0.341
126 378.00 1500.00 104 344 0.740 10000.000 0.000 0.341
127 381.00 1500.00 131 324 0.740 10000.000 0.000 0.341
128 384.00 1500.00 134 316 0.740 10000.000 0.000 0.341
129 387.00 1500.00 112 289 0.740 10000.000 0.000 0.341
130 390.00 1500.00 117 298 0.740 10000.000 0.000 0.341
131 393.00 1500.00 126 286 0.740 10000.000 0.000 0.341
132 396.00 1500.00 137 286 0.740 10000.000 0.000 0.341
133 399.00 1500.00 135 278 0.740 10000.000 0.000 0.341
134 402.00 1500.00 167 299 0.740 10000.000 0.000 0.341
135 405.00 1500.00 152 294 0.740 10000.000 0.000 0.341
136 408.00 1500.00 132 287 0.740 10000.000 0.000 0.341
137 411.00 1500.00 130 323 0.740 10000.000 0.000 0.341
138 414.00 1500.00 148 362 0.740 10000.000 0.000 0.341
139 417.00 1500.00 162 336 0.740 10000.000 0.000 0.341
140 420.00 1500.00 148 337 0.740 10000.000 0.000 0.341
141 423.00 1500.00 128 367 0.740 10000.000 0.000 0.341
142 426.00 1500.00 194 380 0.740 10000.000 0.000 0.341
143 429.00 1500.00 141 411 0.740 10000.000 0.000 0.341
144 432.00 1500.00 146 405 0.740 10000.000 0.000 0.341
