# BinNR microsec tot-time (s)  O-Beam AUX Ampl(V) f(Hz) phase(deg) chi(pos)
0 0.00 1500.01 161 576 1.520 10000.000 0.000 -0.330
1 3.00 1500.01 320 1182 1.520 10000.000 0.000 -0.330
2 6.00 1500.01 409 1116 1.520 10000.000 0.000 -0.330
3 9.00 1500.01 366 1191 1.520 10000.000 0.000 -0.330
4 12.00 1500.01 401 1193 1.520 10000.000 0.000 -0.330
5 15.00 1500.01 377 1140 1.520 10000.000 0.000 -0.330
6 18.00 1500.01 402 1166 1.520 10000.000 0.000 -0.330
7 21.00 1500.01 431 1283 1.520 10000.000 0.000 -0.330
8 24.00 1500.01 409 1302 1.520 10000.000 0.000 -0.330
9 27.00 1500.01 418 1278 1.520 10000.000 0.000 -0.330
10 30.00 1500.01 440 1308 1.520 10000.000 0.000 -0.330
11 33.00 1500.01 448 1266 1.520 10000.000 0.000 -0.330
12 36.00 1500.01 462 1347 1.520 10000.000 0.000 -0.330
13 39.00 1500.01 470 1284 1.520 10000.000 0.000 -0.330
14 42.00 1500.01 458 1323 1.520 10000.000 0.000 -0.330
15 45.00 1500.01 438 1304 1.520 10000.000 0.000 -0.330
16 48.00 1500.01 432 1154 1.520 10000.000 0.000 -0.330
17 51.00 1500.01 492 1224 1.520 10000.000 0.000 -0.330
18 54.00 1500.01 423 1154 1.520 10000.000 0.000 -0.330
19 57.00 1500.01 424 1093 1.520 10000.000 0.000 -0.330
20 60.00 1500.01 390 1224 1.520 10000.000 0.000 -0.330
21 63.00 1500.01 411 1200 1.520 10000.000 0.000 -0.330
22 66.00 1500.01 387 1265 1.520 10000.000 0.000 -0.330
23 69.00 1500.01 348 1241 1.520 10000.000 0.000 -0.330
24 72.00 1500.01 349 1296 1.520 10000.000 0.000 -0.330
25 75.00 1500.01 317 1302 1.520 10000.000 0.000 -0.330
26 78.00 1500.01 334 1381 1.520 10000.000 0.000 -0.330
27 81.00 1500.01 310 1433 1.520 10000.000 0.000 -0.330
28 84.00 1500.01 317 1364 1.520 10000.000 0.000 -0.330
29 87.00 1500.01 345 1331 1.520 10000.000 0.000 -0.330
30 90.00 1500.01 327 1349 1.520 10000.000 0.000 -0.330
31 93.00 1500.01 342 1445 1.520 10000.000 0.000 -0.330
32 96.00 1500.01 307 1402 1.520 10000.000 0.000 -0.330
33 99.00 1500.01 371 1379 1.520 10000.000 0.000 -0.330
34 102.00 1500.01 397 1449 1.520 10000.000 0.000 -0.330
35 105.00 1500.01 342 1336 1.520 10000.000 0.000 -0.330
36 108.00 1500.01 352 1433 1.520 10000.000 0.000 -0.330
37 111.00 1500.01 378 1350 1.520 10000.000 0.000 -0.330
38 114.00 1500.01 423 1426 1.520 10000.000 0.000 -0.330
39 117.00 1500.01 430 1391 1.520 10000.000 0.000 -0.330
40 120.00 1500.01 423 1359 1.520 10000.000 0.000 -0.330
41 123.00 1500.01 435 1257 1.520 10000.000 0.000 -0.330
42 126.00 1500.01 401 1357 1.520 10000.000 0.000 -0.330
43 129.00 1500.01 414 1196 1.520 10000.000 0.000 -0.330
44 132.00 1500.01 445 1233 1.520 10000.000 0.000 -0.330
45 135.00 1500.01 438 1138 1.520 10000.000 0.000 -0.330
46 138.00 1500.01 457 1141 1.520 10000.000 0.000 -0.330
47 141.00 1500.01 430 985 1.520 10000.000 0.000 -0.330
48 144.00 1500.01 456 1001 1.520 10000.000 0.000 -0.330
49 147.00 1500.01 446 1015 1.520 10000.000 0.000 -0.330
50 150.00 1500.01 437 1070 1.520 10000.000 0.000 -0.330
51 153.00 1500.01 429 1034 1.520 10000.000 0.000 -0.330
52 156.00 1500.01 412 1034 1.520 10000.000 0.000 -0.330
53 159.00 1500.01 365 1116 1.520 10000.000 0.000 -0.330
54 162.00 1500.01 389 1202 1.520 10000.000 0.000 -0.330
55 165.00 1500.01 393 1214 1.520 10000.000 0.000 -0.330
56 168.00 1500.01 358 1267 1.520 10000.000 0.000 -0.330
57 171.00 1500.01 350 1213 1.520 10000.000 0.000 -0.330
58 174.00 1500.01 325 1371 1.520 10000.000 0.000 -0.330
59 177.00 1500.01 330 1353 1.520 10000.000 0.000 -0.330
60 180.00 1500.01 323 1469 1.520 10000.000 0.000 -0.330
61 183.00 1500.01 308 1393 1.520 10000.000 0.000 -0.330
62 186.00 1500.01 303 1368 1.520 10000.000 0.000 -0.330
63 189.00 1500.01 343 1354 1.520 10000.000 0.000 -0.330
64 192.00 1500.01 327 1392 1.520 10000.000 0.000 -0.330
65 195.00 1500.01 322 1325 1.520 10000.000 0.000 -0.330
66 198.00 1500.01 373 1456 1.520 10000.000 0.000 -0.330
67 201.00 1500.01 367 1378 1.520 10000.000 0.000 -0.330
68 204.00 1500.01 356 1396 1.520 10000.000 0.000 -0.330
69 207.00 1500.01 402 1336 1.520 10000.000 0.000 -0.330
70 210.00 1500.01 382 1411 1.520 10000.000 0.000 -0.330
71 213.00 1500.01 396 1413 1.520 10000.000 0.000 -0.330
72 216.00 1500.01 416 1357 1.520 10000.000 0.000 -0.330
73 219.00 1500.01 394 1407 1.520 10000.000 0.000 -0.330
74 222.00 1500.01 412 1352 1.520 10000.000 0.000 -0.330
75 225.00 1500.01 405 1238 1.520 10000.000 0.000 -0.330
76 228.00 1500.01 431 1302 1.520 10000.000 0.000 -0.330
77 231.00 1500.01 455 1252 1.520 10000.000 0.000 -0.330
78 234.00 1500.01 449 1154 1.520 10000.000 0.000 -0.330
79 237.00 1500.01 450 1076 1.520 10000.000 0.000 -0.330
80 240.00 1500.01 438 1093 1.520 10000.000 0.000 -0.330
81 243.00 1500.01 471 1053 1.520 10000.000 0.000 -0.330
82 246.00 1500.01 433 1035 1.520 10000.000 0.000 -0.330
83 249.00 1500.01 409 1049 1.520 10000.000 0.000 -0.330
84 252.00 1500.01 425 1094 1.520 10000.000 0.000 -0.330
85 255.00 1500.01 428 1114 1.520 10000.000 0.000 -0.330
86 258.00 1500.01 438 1111 1.520 10000.000 0.000 -0.330
87 261.00 1500.01 418 1119 1.520 10000.000 0.000 -0.330
88 264.00 1500.01 380 1246 1.520 10000.000 0.000 -0.330
89 267.00 1500.01 387 1248 1.520 10000.000 0.000 -0.330
90 270.00 1500.01 396 1269 1.520 10000.000 0.000 -0.330
91 273.00 1500.01 341 1296 1.520 10000.000 0.000 -0.330
92 276.00 1500.01 390 1393 1.520 10000.000 0.000 -0.330
93 279.00 1500.01 346 1336 1.520 10000.000 0.000 -0.330
94 282.00 1500.01 369 1458 1.520 10000.000 0.000 -0.330
95 285.00 1500.01 397 1498 1.520 10000.000 0.000 -0.330
96 288.00 1500.01 354 1450 1.520 10000.000 0.000 -0.330
97 291.00 1500.01 420 1410 1.520 10000.000 0.000 -0.330
98 294.00 1500.01 373 1313 1.520 10000.000 0.000 -0.330
99 297.00 1500.01 392 1352 1.520 10000.000 0.000 -0.330
100 300.00 1500.01 403 1342 1.520 10000.000 0.000 -0.330
101 303.00 1500.01 430 1449 1.520 10000.000 0.000 -0.330
102 306.00 1500.01 385 1422 1.520 10000.000 0.000 -0.330
103 309.00 1500.01 404 1386 1.520 10000.000 0.000 -0.330
104 312.00 1500.01 382 1428 1.520 10000.000 0.000 -0.330
105 315.00 1500.01 379 1367 1.520 10000.000 0.000 -0.330
106 318.00 1500.01 357 1321 1.520 10000.000 0.000 -0.330
107 321.00 1500.01 346 1334 1.520 10000.000 0.000 -0.330
108 324.00 1500.01 402 1305 1.520 10000.000 0.000 -0.330
109 327.00 1500.01 337 1217 1.520 10000.000 0.000 -0.330
110 330.00 1500.01 398 1319 1.520 10000.000 0.000 -0.330
111 333.00 1500.01 340 1153 1.520 10000.000 0.000 -0.330
112 336.00 1500.01 396 1098 1.520 10000.000 0.000 -0.330
113 339.00 1500.01 370 1040 1.520 10000.000 0.000 -0.330
114 342.00 1500.01 358 1078 1.520 10000.000 0.000 -0.330
115 345.00 1500.01 403 1050 1.520 10000.000 0.000 -0.330
116 348.00 1500.01 437 1087 1.520 10000.000 0.000 -0.330
117 351.00 1500.01 384 1040 1.520 10000.000 0.000 -0.330
118 354.00 1500.01 427 1024 1.520 10000.000 0.000 -0.330
119 357.00 1500.01 395 1102 1.520 10000.000 0.000 -0.330
120 360.00 1500.01 429 1155 1.520 10000.000 0.000 -0.330
121 363.00 1500.01 411 1145 1.520 10000.000 0.000 -0.330
122 366.00 1500.01 434 1192 1.520 10000.000 0.000 -0.330
123 369.00 1500.01 430 1264 1.520 10000.000 0.000 -0.330
124 372.00 1500.01 468 1397 1.520 10000.000 0.000 -0.330
125 375.00 1500.01 421 1296 1.520 10000.000 0.000 -0.330
126 378.00 1500.01 467 1378 1.520 10000.000 0.000 -0.330
127 381.00 1500.01 438 1333 1.520 10000.000 0.000 -0.330
128 384.00 1500.01 447 1440 1.520 10000.000 0.000 -0.330
129 387.00 1500.01 382 1377 1.520 10000.000 0.000 -0.330
130 390.00 1500.01 422 1359 1.520 10000.000 0.000 -0.330
131 393.00 1500.01 364 1297 1.520 10000.000 0.000 -0.330
132 396.00 1500.01 397 1362 1.520 10000.000 0.000 -0.330
133 399.00 1500.01 354 1342 1.520 10000.000 0.000 -0.330
134 402.00 1500.01 365 1438 1.520 10000.000 0.000 -0.330
135 405.00 1500.01 354 1338 1.520 10000.000 0.000 -0.330
136 408.00 1500.01 346 1394 1.520 10000.000 0.000 -0.330
137 411.00 1500.01 330 1350 1.520 10000.000 0.000 -0.330
138 414.00 1500.01 334 1474 1.520 10000.000 0.000 -0.330
139 417.00 1500.01 320 1334 1.520 10000.000 0.000 -0.330
140 420.00 1500.01 337 1373 1.520 10000.000 0.000 -0.330
141 423.00 1500.01 307 1382 1.520 10000.000 0.000 -0.330
142 426.00 1500.01 337 1280 1.520 10000.000 0.000 -0.330
143 429.00 1500.01 328 1222 1.520 10000.000 0.000 -0.330
144 432.00 1500.01 321 1288 1.520 10000.000 0.000 -0.330
