# BinNR microsec tot-time (s)  O-Beam AUX Ampl(V) f(Hz) phase(deg) chi(pos)
0 0.00 1500.00 239 686 1.520 10000.000 0.000 0.000
1 3.00 1500.00 461 1333 1.520 10000.000 0.000 0.000
2 6.00 1500.00 427 1451 1.520 10000.000 0.000 0.000
3 9.00 1500.00 430 1421 1.520 10000.000 0.000 0.000
4 12.00 1500.00 448 1405 1.520 10000.000 0.000 0.000
5 15.00 1500.00 405 1441 1.520 10000.000 0.000 0.000
6 18.00 1500.00 450 1327 1.520 10000.000 0.000 0.000
7 21.00 1500.00 411 1326 1.520 10000.000 0.000 0.000
8 24.00 1500.00 397 1339 1.520 10000.000 0.000 0.000
9 27.00 1500.00 404 1331 1.520 10000.000 0.000 0.000
10 30.00 1500.00 401 1321 1.520 10000.000 0.000 0.000
11 33.00 1500.00 405 1331 1.520 10000.000 0.000 0.000
12 36.00 1500.00 397 1348 1.520 10000.000 0.000 0.000
13 39.00 1500.00 429 1333 1.520 10000.000 0.000 0.000
14 42.00 1500.00 413 1361 1.520 10000.000 0.000 0.000
15 45.00 1500.00 457 1287 1.520 10000.000 0.000 0.000
16 48.00 1500.00 412 1443 1.520 10000.000 0.000 0.000
17 51.00 1500.00 455 1424 1.520 10000.000 0.000 0.000
18 54.00 1500.00 445 1410 1.520 10000.000 0.000 0.000
19 57.00 1500.00 448 1368 1.520 10000.000 0.000 0.000
20 60.00 1500.00 433 1417 1.520 10000.000 0.000 0.000
21 63.00 1500.00 430 1415 1.520 10000.000 0.000 0.000
22 66.00 1500.00 450 1381 1.520 10000.000 0.000 0.000
23 69.00 1500.00 433 1398 1.520 10000.000 0.000 0.000
24 72.00 1500.00 460 1344 1.520 10000.000 0.000 0.000
25 75.00 1500.00 455 1340 1.520 10000.000 0.000 0.000
26 78.00 1500.00 449 1269 1.520 10000.000 0.000 0.000
27 81.00 1500.00 459 1301 1.520 10000.000 0.000 0.000
28 84.00 1500.00 503 1225 1.520 10000.000 0.000 0.000
29 87.00 1500.00 404 1126 1.520 10000.000 0.000 0.000
30 90.00 1500.00 445 1178 1.520 10000.000 0.000 0.000
31 93.00 1500.00 458 1079 1.520 10000.000 0.000 0.000
32 96.00 1500.00 436 1063 1.520 10000.000 0.000 0.000
33 99.00 1500.00 416 1001 1.520 10000.000 0.000 0.000
34 102.00 1500.00 441 1089 1.520 10000.000 0.000 0.000
35 105.00 1500.00 428 1083 1.520 10000.000 0.000 0.000
36 108.00 1500.00 410 1123 1.520 10000.000 0.000 0.000
37 111.00 1500.00 458 1149 1.520 10000.000 0.000 0.000
38 114.00 1500.00 430 1176 1.520 10000.000 0.000 0.000
39 117.00 1500.00 391 1254 1.520 10000.000 0.000 0.000
40 120.00 1500.00 408 1266 1.520 10000.000 0.000 0.000
41 123.00 1500.00 432 1280 1.520 10000.000 0.000 0.000
42 126.00 1500.00 430 1371 1.520 10000.000 0.000 0.000
43 129.00 1500.00 414 1381 1.520 10000.000 0.000 0.000
44 132.00 1500.00 420 1422 1.520 10000.000 0.000 0.000
45 135.00 1500.00 441 1349 1.520 10000.000 0.000 0.000
46 138.00 1500.00 414 1421 1.520 10000.000 0.000 0.000
47 141.00 1500.00 405 1357 1.520 10000.000 0.000 0.000
48 144.00 1500.00 454 1461 1.520 10000.000 0.000 0.000
49 147.00 1500.00 435 1343 1.520 10000.000 0.000 0.000
50 150.00 1500.00 434 1375 1.520 10000.000 0.000 0.000
51 153.00 1500.00 440 1472 1.520 10000.000 0.000 0.000
52 156.00 1500.00 457 1469 1.520 10000.000 0.000 0.000
53 159.00 1500.00 431 1432 1.520 10000.000 0.000 0.000
54 162.00 1500.00 416 1402 1.520 10000.000 0.000 0.000
55 165.00 1500.00 432 1373 1.520 10000.000 0.000 0.000
56 168.00 1500.00 472 1434 1.520 10000.000 0.000 0.000
57 171.00 1500.00 445 1300 1.520 10000.000 0.000 0.000
58 174.00 1500.00 445 1354 1.520 10000.000 0.000 0.000
59 177.00 1500.00 428 1317 1.520 10000.000 0.000 0.000
60 180.00 1500.00 429 1285 1.520 10000.000 0.000 0.000
61 183.00 1500.00 471 1104 1.520 10000.000 0.000 0.000
62 186.00 1500.00 475 1069 1.520 10000.000 0.000 0.000
63 189.00 1500.00 417 1087 1.520 10000.000 0.000 0.000
64 192.00 1500.00 418 1080 1.520 10000.000 0.000 0.000
65 195.00 1500.00 453 1035 1.520 10000.000 0.000 0.000
66 198.00 1500.00 460 1089 1.520 10000.000 0.000 0.000
67 201.00 1500.00 417 1046 1.520 10000.000 0.000 0.000
68 204.00 1500.00 444 1108 1.520 10000.000 0.000 0.000
69 207.00 1500.00 415 1134 1.520 10000.000 0.000 0.000
70 210.00 1500.00 419 1078 1.520 10000.000 0.000 0.000
71 213.00 1500.00 423 1154 1.520 10000.000 0.000 0.000
72 216.00 1500.00 446 1172 1.520 10000.000 0.000 0.000
73 219.00 1500.00 443 1228 1.520 10000.000 0.000 0.000
74 222.00 1500.00 407 1287 1.520 10000.000 0.000 0.000
75 225.00 1500.00 435 1330 1.520 10000.000 0.000 0.000
76 228.00 1500.00 423 1344 1.520 10000.000 0.000 0.000
77 231.00 1500.00 427 1375 1.520 10000.000 0.000 0.000
78 234.00 1500.00 404 1380 1.520 10000.000 0.000 0.000
79 237.00 1500.00 392 1363 1.520 10000.000 0.000 0.000
80 240.00 1500.00 455 1348 1.520 10000.000 0.000 0.000
81 243.00 1500.00 413 1390 1.520 10000.000 0.000 0.000
82 246.00 1500.00 390 1498 1.520 10000.000 0.000 0.000
83 249.00 1500.00 419 1452 1.520 10000.000 0.000 0.000
84 252.00 1500.00 462 1367 1.520 10000.000 0.000 0.000
85 255.00 1500.00 487 1377 1.520 10000.000 0.000 0.000
86 258.00 1500.00 488 1355 1.520 10000.000 0.000 0.000
87 261.00 1500.00 452 1425 1.520 10000.000 0.000 0.000
88 264.00 1500.00 449 1378 1.520 10000.000 0.000 0.000
89 267.00 1500.00 463 1378 1.520 10000.000 0.000 0.000
90 270.00 1500.00 462 1365 1.520 10000.000 0.000 0.000
91 273.00 1500.00 452 1321 1.520 10000.000 0.000 0.000
92 276.00 1500.00 409 1290 1.520 10000.000 0.000 0.000
93 279.00 1500.00 424 1326 1.520 10000.000 0.000 0.000
94 282.00 1500.00 442 1270 1.520 10000.000 0.000 0.000
95 285.00 1500.00 460 1167 1.520 10000.000 0.000 0.000
96 288.00 1500.00 447 1191 1.520 10000.000 0.000 0.000
97 291.00 1500.00 450 1049 1.520 10000.000 0.000 0.000
98 294.00 1500.00 423 1011 1.520 10000.000 0.000 0.000
99 297.00 1500.00 399 994 1.520 10000.000 0.000 0.000
100 300.00 1500.00 416 1031 1.520 10000.000 0.000 0.000
101 303.00 1500.00 467 1072 1.520 10000.000 0.000 0.000
102 306.00 1500.00 448 1098 1.520 10000.000 0.000 0.000
103 309.00 1500.00 449 1049 1.520 10000.000 0.000 0.000
104 312.00 1500.00 467 1148 1.520 10000.000 0.000 0.000
105 315.00 1500.00 446 1176 1.520 10000.000 0.000 0.000
106 318.00 1500.00 464 1322 1.520 10000.000 0.000 0.000
107 321.00 1500.00 460 1231 1.520 10000.000 0.000 0.000
108 324.00 1500.00 445 1257 1.520 10000.000 0.000 0.000
109 327.00 1500.00 404 1353 1.520 10000.000 0.000 0.000
110 330.00 1500.00 457 1344 1.520 10000.000 0.000 0.000
111 333.00 1500.00 437 1445 1.520 10000.000 0.000 0.000
112 336.00 1500.00 478 1405 1.520 10000.000 0.000 0.000
113 339.00 1500.00 444 1406 1.520 10000.000 0.000 0.000
114 342.00 1500.00 430 1408 1.520 10000.000 0.000 0.000
115 345.00 1500.00 411 1406 1.520 10000.000 0.000 0.000
116 348.00 1500.00 443 1414 1.520 10000.000 0.000 0.000
117 351.00 1500.00 411 1400 1.520 10000.000 0.000 0.000
118 354.00 1500.00 485 1447 1.520 10000.000 0.000 0.000
119 357.00 1500.00 376 1388 1.520 10000.000 0.000 0.000
120 360.00 1500.00 393 1421 1.520 10000.000 0.000 0.000
121 363.00 1500.00 398 1436 1.520 10000.000 0.000 0.000
122 366.00 1500.00 387 1427 1.520 10000.000 0.000 0.000
123 369.00 1500.00 427 1309 1.520 10000.000 0.000 0.000
124 372.00 1500.00 430 1387 1.520 10000.000 0.000 0.000
125 375.00 1500.00 464 1282 1.520 10000.000 0.000 0.000
126 378.00 1500.00 448 1298 1.520 10000.000 0.000 0.000
127 381.00 1500.00 459 1203 1.520 10000.000 0.000 0.000
128 384.00 1500.00 464 1151 1.520 10000.000 0.000 0.000
129 387.00 1500.00 391 1086 1.520 10000.000 0.000 0.000
130 390.00 1500.00 481 1107 1.520 10000.000 0.000 0.000
131 393.00 1500.00 451 1076 1.520 10000.000 0.000 0.000
132 396.00 1500.00 480 1110 1.520 10000.000 0.000 0.000
133 399.00 1500.00 447 1083 1.520 10000.000 0.000 0.000
134 402.00 1500.00 401 1021 1.520 10000.000 0.000 0.000
135 405.00 1500.00 415 991 1.520 10000.000 0.000 0.000
136 408.00 1500.00 444 1136 1.520 10000.000 0.000 0.000
137 411.00 1500.00 475 1107 1.520 10000.000 0.000 0.000
138 414.00 1500.00 436 1147 1.520 10000.000 0.000 0.000
139 417.00 1500.00 452 1159 1.520 10000.000 0.000 0.000
140 420.00 1500.00 446 1239 1.520 10000.000 0.000 0.000
141 423.00 1500.00 443 1219 1.520 10000.000 0.000 0.000
142 426.00 1500.00 455 1354 1.520 10000.000 0.000 0.000
143 429.00 1500.00 435 1341 1.520 10000.000 0.000 0.000
144 432.00 1500.00 433 1519 1.520 10000.000 0.000 0.000
