# BinNR microsec tot-time (s)  O-Beam AUX Ampl(V) f(Hz) phase(deg) chi(pos)
0 0.00 1500.02 223 660 1.520 10000.000 0.000 0.165
1 3.00 1500.02 432 1315 1.520 10000.000 0.000 0.165
2 6.00 1500.02 393 1315 1.520 10000.000 0.000 0.165
3 9.00 1500.02 399 1278 1.520 10000.000 0.000 0.165
4 12.00 1500.02 401 1293 1.520 10000.000 0.000 0.165
5 15.00 1500.02 385 1222 1.520 10000.000 0.000 0.165
6 18.00 1500.02 384 1251 1.520 10000.000 0.000 0.165
7 21.00 1500.02 377 1205 1.520 10000.000 0.000 0.165
8 24.00 1500.02 348 1160 1.520 10000.000 0.000 0.165
9 27.00 1500.02 338 1126 1.520 10000.000 0.000 0.165
10 30.00 1500.02 351 1134 1.520 10000.000 0.000 0.165
11 33.00 1500.02 338 1092 1.520 10000.000 0.000 0.165
12 36.00 1500.02 382 1037 1.520 10000.000 0.000 0.165
13 39.00 1500.02 389 1112 1.520 10000.000 0.000 0.165
14 42.00 1500.02 348 1135 1.520 10000.000 0.000 0.165
15 45.00 1500.02 333 1177 1.520 10000.000 0.000 0.165
16 48.00 1500.02 366 1234 1.520 10000.000 0.000 0.165
17 51.00 1500.02 334 1245 1.520 10000.000 0.000 0.165
18 54.00 1500.02 387 1294 1.520 10000.000 0.000 0.165
19 57.00 1500.02 394 1276 1.520 10000.000 0.000 0.165
20 60.00 1500.02 425 1339 1.520 10000.000 0.000 0.165
21 63.00 1500.02 431 1235 1.520 10000.000 0.000 0.165
22 66.00 1500.02 432 1283 1.520 10000.000 0.000 0.165
23 69.00 1500.02 426 1232 1.520 10000.000 0.000 0.165
24 72.00 1500.02 438 1182 1.520 10000.000 0.000 0.165
25 75.00 1500.02 446 1144 1.520 10000.000 0.000 0.165
26 78.00 1500.02 460 1049 1.520 10000.000 0.000 0.165
27 81.00 1500.02 468 963 1.520 10000.000 0.000 0.165
28 84.00 1500.02 471 921 1.520 10000.000 0.000 0.165
29 87.00 1500.02 458 834 1.520 10000.000 0.000 0.165
30 90.00 1500.02 443 828 1.520 10000.000 0.000 0.165
31 93.00 1500.02 471 736 1.520 10000.000 0.000 0.165
32 96.00 1500.02 450 765 1.520 10000.000 0.000 0.165
33 99.00 1500.02 459 722 1.520 10000.000 0.000 0.165
34 102.00 1500.02 438 727 1.520 10000.000 0.000 0.165
35 105.00 1500.02 441 802 1.520 10000.000 0.000 0.165
36 108.00 1500.02 406 833 1.520 10000.000 0.000 0.165
37 111.00 1500.02 420 865 1.520 10000.000 0.000 0.165
38 114.00 1500.02 442 887 1.520 10000.000 0.000 0.165
39 117.00 1500.02 386 984 1.520 10000.000 0.000 0.165
40 120.00 1500.02 380 1030 1.520 10000.000 0.000 0.165
41 123.00 1500.02 372 1099 1.520 10000.000 0.000 0.165
42 126.00 1500.02 364 1179 1.520 10000.000 0.000 0.165
43 129.00 1500.02 329 1185 1.520 10000.000 0.000 0.165
44 132.00 1500.02 339 1229 1.520 10000.000 0.000 0.165
45 135.00 1500.02 336 1230 1.520 10000.000 0.000 0.165
46 138.00 1500.02 354 1344 1.520 10000.000 0.000 0.165
47 141.00 1500.02 368 1296 1.520 10000.000 0.000 0.165
48 144.00 1500.02 372 1367 1.520 10000.000 0.000 0.165
49 147.00 1500.02 354 1315 1.520 10000.000 0.000 0.165
50 150.00 1500.02 387 1342 1.520 10000.000 0.000 0.165
51 153.00 1500.02 387 1382 1.520 10000.000 0.000 0.165
52 156.00 1500.02 426 1429 1.520 10000.000 0.000 0.165
53 159.00 1500.02 416 1408 1.520 10000.000 0.000 0.165
54 162.00 1500.02 428 1362 1.520 10000.000 0.000 0.165
55 165.00 1500.02 428 1264 1.520 10000.000 0.000 0.165
56 168.00 1500.02 399 1224 1.520 10000.000 0.000 0.165
57 171.00 1500.02 466 1143 1.520 10000.000 0.000 0.165
58 174.00 1500.02 471 1120 1.520 10000.000 0.000 0.165
59 177.00 1500.02 423 1040 1.520 10000.000 0.000 0.165
60 180.00 1500.02 414 1025 1.520 10000.000 0.000 0.165
61 183.00 1500.02 429 921 1.520 10000.000 0.000 0.165
62 186.00 1500.02 437 825 1.520 10000.000 0.000 0.165
63 189.00 1500.02 481 772 1.520 10000.000 0.000 0.165
64 192.00 1500.02 439 774 1.520 10000.000 0.000 0.165
65 195.00 1500.02 413 731 1.520 10000.000 0.000 0.165
66 198.00 1500.02 456 729 1.520 10000.000 0.000 0.165
67 201.00 1500.02 416 738 1.520 10000.000 0.000 0.165
68 204.00 1500.02 425 798 1.520 10000.000 0.000 0.165
69 207.00 1500.02 456 847 1.520 10000.000 0.000 0.165
70 210.00 1500.02 409 837 1.520 10000.000 0.000 0.165
71 213.00 1500.02 372 913 1.520 10000.000 0.000 0.165
72 216.00 1500.02 369 950 1.520 10000.000 0.000 0.165
73 219.00 1500.02 321 964 1.520 10000.000 0.000 0.165
74 222.00 1500.02 389 1129 1.520 10000.000 0.000 0.165
75 225.00 1500.02 344 1118 1.520 10000.000 0.000 0.165
76 228.00 1500.02 350 1255 1.520 10000.000 0.000 0.165
77 231.00 1500.02 352 1257 1.520 10000.000 0.000 0.165
78 234.00 1500.02 311 1338 1.520 10000.000 0.000 0.165
79 237.00 1500.02 337 1327 1.520 10000.000 0.000 0.165
80 240.00 1500.02 354 1349 1.520 10000.000 0.000 0.165
81 243.00 1500.02 336 1332 1.520 10000.000 0.000 0.165
82 246.00 1500.02 383 1434 1.520 10000.000 0.000 0.165
83 249.00 1500.02 383 1309 1.520 10000.000 0.000 0.165
84 252.00 1500.02 407 1432 1.520 10000.000 0.000 0.165
85 255.00 1500.02 380 1346 1.520 10000.000 0.000 0.165
86 258.00 1500.02 419 1350 1.520 10000.000 0.000 0.165
87 261.00 1500.02 415 1267 1.520 10000.000 0.000 0.165
88 264.00 1500.02 440 1324 1.520 10000.000 0.000 0.165
89 267.00 1500.02 409 1288 1.520 10000.000 0.000 0.165
90 270.00 1500.02 424 1204 1.520 10000.000 0.000 0.165
91 273.00 1500.02 424 1148 1.520 10000.000 0.000 0.165
92 276.00 1500.02 458 1049 1.520 10000.000 0.000 0.165
93 279.00 1500.02 443 1017 1.520 10000.000 0.000 0.165
94 282.00 1500.02 452 925 1.520 10000.000 0.000 0.165
95 285.00 1500.02 428 809 1.520 10000.000 0.000 0.165
96 288.00 1500.02 417 811 1.520 10000.000 0.000 0.165
97 291.00 1500.02 414 787 1.520 10000.000 0.000 0.165
98 294.00 1500.02 415 749 1.520 10000.000 0.000 0.165
99 297.00 1500.02 404 718 1.520 10000.000 0.000 0.165
100 300.00 1500.02 426 709 1.520 10000.000 0.000 0.165
101 303.00 1500.02 405 751 1.520 10000.000 0.000 0.165
102 306.00 1500.02 428 801 1.520 10000.000 0.000 0.165
103 309.00 1500.02 403 829 1.520 10000.000 0.000 0.165
104 312.00 1500.02 422 912 1.520 10000.000 0.000 0.165
105 315.00 1500.02 482 908 1.520 10000.000 0.000 0.165
106 318.00 1500.02 450 976 1.520 10000.000 0.000 0.165
107 321.00 1500.02 480 1021 1.520 10000.000 0.000 0.165
108 324.00 1500.02 435 1102 1.520 10000.000 0.000 0.165
109 327.00 1500.02 445 1145 1.520 10000.000 0.000 0.165
110 330.00 1500.02 462 1289 1.520 10000.000 0.000 0.165
111 333.00 1500.02 437 1331 1.520 10000.000 0.000 0.165
112 336.00 1500.02 423 1316 1.520 10000.000 0.000 0.165
113 339.00 1500.02 411 1364 1.520 10000.000 0.000 0.165
114 342.00 1500.02 426 1352 1.520 10000.000 0.000 0.165
115 345.00 1500.02 415 1356 1.520 10000.000 0.000 0.165
116 348.00 1500.02 399 1324 1.520 10000.000 0.000 0.165
117 351.00 1500.02 386 1396 1.520 10000.000 0.000 0.165
118 354.00 1500.02 413 1394 1.520 10000.000 0.000 0.165
119 357.00 1500.02 392 1323 1.520 10000.000 0.000 0.165
120 360.00 1500.02 353 1348 1.520 10000.000 0.000 0.165
121 363.00 1500.02 360 1193 1.520 10000.000 0.000 0.165
122 366.00 1500.02 391 1240 1.520 10000.000 0.000 0.165
123 369.00 1500.02 358 1213 1.520 10000.000 0.000 0.165
124 372.00 1500.02 340 1183 1.520 10000.000 0.000 0.165
125 375.00 1500.02 337 1057 1.520 10000.000 0.000 0.165
126 378.00 1500.02 359 1019 1.520 10000.000 0.000 0.165
127 381.00 1500.02 363 955 1.520 10000.000 0.000 0.165
128 384.00 1500.02 399 880 1.520 10000.000 0.000 0.165
129 387.00 1500.02 380 830 1.520 10000.000 0.000 0.165
130 390.00 1500.02 391 816 1.520 10000.000 0.000 0.165
131 393.00 1500.02 402 752 1.520 10000.000 0.000 0.165
132 396.00 1500.02 426 744 1.520 10000.000 0.000 0.165
133 399.00 1500.02 416 766 1.520 10000.000 0.000 0.165
134 402.00 1500.02 413 712 1.520 10000.000 0.000 0.165
135 405.00 1500.02 415 807 1.520 10000.000 0.000 0.165
136 408.00 1500.02 445 840 1.520 10000.000 0.000 0.165
137 411.00 1500.02 411 876 1.520 10000.000 0.000 0.165
138 414.00 1500.02 446 941 1.520 10000.000 0.000 0.165
139 417.00 1500.02 465 987 1.520 10000.000 0.000 0.165
140 420.00 1500.02 468 1050 1.520 10000.000 0.000 0.165
141 423.00 1500.02 468 1117 1.520 10000.000 0.000 0.165
142 426.00 1500.02 453 1183 1.520 10000.000 0.000 0.165
143 429.00 1500.02 431 1155 1.520 10000.000 0.000 0.165
144 432.00 1500.02 458 1222 1.520 10000.000 0.000 0.165
