# BinNR microsec tot-time (s)  O-Beam AUX Ampl(V) f(Hz) phase(deg) chi(pos)
0 0.00 1500.01 58 79 0.740 10000.000 0.000 1.505
1 3.00 1500.01 98 205 0.740 10000.000 0.000 1.505
2 6.00 1500.01 92 188 0.740 10000.000 0.000 1.505
3 9.00 1500.01 107 206 0.740 10000.000 0.000 1.505
4 12.00 1500.01 105 191 0.740 10000.000 0.000 1.505
5 15.00 1500.01 109 163 0.740 10000.000 0.000 1.505
6 18.00 1500.01 102 192 0.740 10000.000 0.000 1.505
7 21.00 1500.01 110 202 0.740 10000.000 0.000 1.505
8 24.00 1500.01 119 173 0.740 10000.000 0.000 1.505
9 27.00 1500.01 112 174 0.740 10000.000 0.000 1.505
10 30.00 1500.01 112 170 0.740 10000.000 0.000 1.505
11 33.00 1500.01 106 199 0.740 10000.000 0.000 1.505
12 36.00 1500.01 104 197 0.740 10000.000 0.000 1.505
13 39.00 1500.01 119 207 0.740 10000.000 0.000 1.505
14 42.00 1500.01 113 188 0.740 10000.000 0.000 1.505
15 45.00 1500.01 114 196 0.740 10000.000 0.000 1.505
16 48.00 1500.01 112 180 0.740 10000.000 0.000 1.505
17 51.00 1500.01 120 197 0.740 10000.000 0.000 1.505
18 54.00 1500.01 96 203 0.740 10000.000 0.000 1.505
19 57.00 1500.01 116 209 0.740 10000.000 0.000 1.505
20 60.00 1500.01 93 176 0.740 10000.000 0.000 1.505
21 63.00 1500.01 90 198 0.740 10000.000 0.000 1.505
22 66.00 1500.01 111 203 0.740 10000.000 0.000 1.505
23 69.00 1500.01 116 179 0.740 10000.000 0.000 1.505
24 72.00 1500.01 111 205 0.740 10000.000 0.000 1.505
25 75.00 1500.01 102 179 0.740 10000.000 0.000 1.505
26 78.00 1500.01 108 186 0.740 10000.000 0.000 1.505
27 81.00 1500.01 120 205 0.740 10000.000 0.000 1.505
28 84.00 1500.01 117 191 0.740 10000.000 0.000 1.505
29 87.00 1500.01 110 178 0.740 10000.000 0.000 1.505
30 90.00 1500.01 102 201 0.740 10000.000 0.000 1.505
31 93.00 1500.01 103 205 0.740 10000.000 0.000 1.505
32 96.00 1500.01 94 224 0.740 10000.000 0.000 1.505
33 99.00 1500.01 128 198 0.740 10000.000 0.000 1.505
34 102.00 1500.01 107 164 0.740 10000.000 0.000 1.505
35 105.00 1500.01 100 218 0.740 10000.000 0.000 1.505
36 108.00 1500.01 105 202 0.740 10000.000 0.000 1.505
37 111.00 1500.01 94 175 0.740 10000.000 0.000 1.505
38 114.00 1500.01 104 165 0.740 10000.000 0.000 1.505
39 117.00 1500.01 111 218 0.740 10000.000 0.000 1.505
40 120.00 1500.01 118 162 0.740 10000.000 0.000 1.505
41 123.00 1500.01 112 164 0.740 10000.000 0.000 1.505
42 126.00 1500.01 102 191 0.740 10000.000 0.000 1.505
43 129.00 1500.01 98 193 0.740 10000.000 0.000 1.505
44 132.00 1500.01 134 210 0.740 10000.000 0.000 1.505
45 135.00 1500.01 100 232 0.740 10000.000 0.000 1.505
46 138.00 1500.01 117 209 0.740 10000.000 0.000 1.505
47 141.00 1500.01 115 218 0.740 10000.000 0.000 1.505
48 144.00 1500.01 122 162 0.740 10000.000 0.000 1.505
49 147.00 1500.01 86 219 0.740 10000.000 0.000 1.505
50 150.00 1500.01 118 199 0.740 10000.000 0.000 1.505
51 153.00 1500.01 121 203 0.740 10000.000 0.000 1.505
52 156.00 1500.01 116 187 0.740 10000.000 0.000 1.505
53 159.00 1500.01 108 185 0.740 10000.000 0.000 1.505
54 162.00 1500.01 109 177 0.740 10000.000 0.000 1.505
55 165.00 1500.01 106 220 0.740 10000.000 0.000 1.505
56 168.00 1500.01 101 216 0.740 10000.000 0.000 1.505
57 171.00 1500.01 110 170 0.740 10000.000 0.000 1.505
58 174.00 1500.01 101 206 0.740 10000.000 0.000 1.505
59 177.00 1500.01 96 193 0.740 10000.000 0.000 1.505
60 180.00 1500.01 120 183 0.740 10000.000 0.000 1.505
61 183.00 1500.01 112 230 0.740 10000.000 0.000 1.505
62 186.00 1500.01 116 188 0.740 10000.000 0.000 1.505
63 189.00 1500.01 90 228 0.740 10000.000 0.000 1.505
64 192.00 1500.01 97 177 0.740 10000.000 0.000 1.505
65 195.00 1500.01 92 212 0.740 10000.000 0.000 1.505
66 198.00 1500.01 108 191 0.740 10000.000 0.000 1.505
67 201.00 1500.01 110 197 0.740 10000.000 0.000 1.505
68 204.00 1500.01 96 210 0.740 10000.000 0.000 1.505
69 207.00 1500.01 114 211 0.740 10000.000 0.000 1.505
70 210.00 1500.01 101 202 0.740 10000.000 0.000 1.505
71 213.00 1500.01 84 204 0.740 10000.000 0.000 1.505
72 216.00 1500.01 117 225 0.740 10000.000 0.000 1.505
73 219.00 1500.01 111 218 0.740 10000.000 0.000 1.505
74 222.00 1500.01 103 196 0.740 10000.000 0.000 1.505
75 225.00 1500.01 100 184 0.740 10000.000 0.000 1.505
76 228.00 1500.01 124 212 0.740 10000.000 0.000 1.505
77 231.00 1500.01 122 176 0.740 10000.000 0.000 1.505
78 234.00 1500.01 101 184 0.740 10000.000 0.000 1.505
79 237.00 1500.01 102 186 0.740 10000.000 0.000 1.505
80 240.00 1500.01 122 187 0.740 10000.000 0.000 1.505
81 243.00 1500.01 114 210 0.740 10000.000 0.000 1.505
82 246.00 1500.01 97 216 0.740 10000.000 0.000 1.505
83 249.00 1500.01 120 185 0.740 10000.000 0.000 1.505
84 252.00 1500.01 118 212 0.740 10000.000 0.000 1.505
85 255.00 1500.01 112 220 0.740 10000.000 0.000 1.505
86 258.00 1500.01 115 218 0.740 10000.000 0.000 1.505
87 261.00 1500.01 107 165 0.740 10000.000 0.000 1.505
88 264.00 1500.01 118 221 0.740 10000.000 0.000 1.505
89 267.00 1500.01 111 184 0.740 10000.000 0.000 1.505
90 270.00 1500.01 111 177 0.740 10000.000 0.000 1.505
91 273.00 1500.01 103 201 0.740 10000.000 0.000 1.505
92 276.00 1500.01 113 179 0.740 10000.000 0.000 1.505
93 279.00 1500.01 104 199 0.740 10000.000 0.000 1.505
94 282.00 1500.01 116 210 0.740 10000.000 0.000 1.505
95 285.00 1500.01 125 193 0.740 10000.000 0.000 1.505
96 288.00 1500.01 106 226 0.740 10000.000 0.000 1.505
97 291.00 1500.01 111 185 0.740 10000.000 0.000 1.505
98 294.00 1500.01 103 178 0.740 10000.000 0.000 1.505
99 297.00 1500.01 109 210 0.740 10000.000 0.000 1.505
100 300.00 1500.01 91 188 0.740 10000.000 0.000 1.505
101 303.00 1500.01 86 196 0.740 10000.000 0.000 1.505
102 306.00 1500.01 99 202 0.740 10000.000 0.000 1.505
103 309.00 1500.01 84 182 0.740 10000.000 0.000 1.505
104 312.00 1500.01 100 188 0.740 10000.000 0.000 1.505
105 315.00 1500.01 98 156 0.740 10000.000 0.000 1.505
106 318.00 1500.01 120 178 0.740 10000.000 0.000 1.505
107 321.00 1500.01 103 170 0.740 10000.000 0.000 1.505
108 324.00 1500.01 103 167 0.740 10000.000 0.000 1.505
109 327.00 1500.01 108 199 0.740 10000.000 0.000 1.505
110 330.00 1500.01 93 205 0.740 10000.000 0.000 1.505
111 333.00 1500.01 106 199 0.740 10000.000 0.000 1.505
112 336.00 1500.01 91 185 0.740 10000.000 0.000 1.505
113 339.00 1500.01 103 222 0.740 10000.000 0.000 1.505
114 342.00 1500.01 120 181 0.740 10000.000 0.000 1.505
115 345.00 1500.01 103 207 0.740 10000.000 0.000 1.505
116 348.00 1500.01 113 176 0.740 10000.000 0.000 1.505
117 351.00 1500.01 104 221 0.740 10000.000 0.000 1.505
118 354.00 1500.01 82 212 0.740 10000.000 0.000 1.505
119 357.00 1500.01 107 203 0.740 10000.000 0.000 1.505
120 360.00 1500.01 95 185 0.740 10000.000 0.000 1.505
121 363.00 1500.01 114 211 0.740 10000.000 0.000 1.505
122 366.00 1500.01 98 197 0.740 10000.000 0.000 1.505
123 369.00 1500.01 102 202 0.740 10000.000 0.000 1.505
124 372.00 1500.01 102 190 0.740 10000.000 0.000 1.505
125 375.00 1500.01 119 201 0.740 10000.000 0.000 1.505
126 378.00 1500.01 110 193 0.740 10000.000 0.000 1.505
127 381.00 1500.01 130 210 0.740 10000.000 0.000 1.505
128 384.00 1500.01 118 186 0.740 10000.000 0.000 1.505
129 387.00 1500.01 116 192 0.740 10000.000 0.000 1.505
130 390.00 1500.01 127 209 0.740 10000.000 0.000 1.505
131 393.00 1500.01 104 201 0.740 10000.000 0.000 1.505
132 396.00 1500.01 112 225 0.740 10000.000 0.000 1.505
133 399.00 1500.01 105 199 0.740 10000.000 0.000 1.505
134 402.00 1500.01 108 192 0.740 10000.000 0.000 1.505
135 405.00 1500.01 113 217 0.740 10000.000 0.000 1.505
136 408.00 1500.01 109 212 0.740 10000.000 0.000 1.505
137 411.00 1500.01 107 203 0.740 10000.000 0.000 1.505
138 414.00 1500.01 115 177 0.740 10000.000 0.000 1.505
139 417.00 1500.01 93 197 0.740 10000.000 0.000 1.505
140 420.00 1500.01 105 203 0.740 10000.000 0.000 1.505
141 423.00 1500.01 108 183 0.740 10000.000 0.000 1.505
142 426.00 1500.01 116 175 0.740 10000.000 0.000 1.505
143 429.00 1500.01 100 200 0.740 10000.000 0.000 1.505
144 432.00 1500.01 93 201 0.740 10000.000 0.000 1.505
