# BinNR microsec tot-time (s)  O-Beam AUX Ampl(V) f(Hz) phase(deg) chi(pos)
0 0.00 1500.03 63 205 0.740 10000.000 0.000 -0.176
1 3.00 1500.03 111 392 0.740 10000.000 0.000 -0.176
2 6.00 1500.03 147 377 0.740 10000.000 0.000 -0.176
3 9.00 1500.03 109 359 0.740 10000.000 0.000 -0.176
4 12.00 1500.03 128 317 0.740 10000.000 0.000 -0.176
5 15.00 1500.03 129 363 0.740 10000.000 0.000 -0.176
6 18.00 1500.03 157 338 0.740 10000.000 0.000 -0.176
7 21.00 1500.03 115 325 0.740 10000.000 0.000 -0.176
8 24.00 1500.03 127 340 0.740 10000.000 0.000 -0.176
9 27.00 1500.03 117 314 0.740 10000.000 0.000 -0.176
10 30.00 1500.03 124 312 0.740 10000.000 0.000 -0.176
11 33.00 1500.03 122 328 0.740 10000.000 0.000 -0.176
12 36.00 1500.03 132 293 0.740 10000.000 0.000 -0.176
13 39.00 1500.03 120 310 0.740 10000.000 0.000 -0.176
14 42.00 1500.03 114 310 0.740 10000.000 0.000 -0.176
15 45.00 1500.03 135 357 0.740 10000.000 0.000 -0.176
16 48.00 1500.03 139 333 0.740 10000.000 0.000 -0.176
17 51.00 1500.03 126 342 0.740 10000.000 0.000 -0.176
18 54.00 1500.03 126 383 0.740 10000.000 0.000 -0.176
19 57.00 1500.03 129 345 0.740 10000.000 0.000 -0.176
20 60.00 1500.03 139 315 0.740 10000.000 0.000 -0.176
21 63.00 1500.03 134 344 0.740 10000.000 0.000 -0.176
22 66.00 1500.03 131 322 0.740 10000.000 0.000 -0.176
23 69.00 1500.03 123 288 0.740 10000.000 0.000 -0.176
24 72.00 1500.03 117 311 0.740 10000.000 0.000 -0.176
25 75.00 1500.03 159 302 0.740 10000.000 0.000 -0.176
26 78.00 1500.03 141 330 0.740 10000.000 0.000 -0.176
27 81.00 1500.03 138 254 0.740 10000.000 0.000 -0.176
28 84.00 1500.03 167 297 0.740 10000.000 0.000 -0.176
29 87.00 1500.03 154 285 0.740 10000.000 0.000 -0.176
30 90.00 1500.03 154 254 0.740 10000.000 0.000 -0.176
31 93.00 1500.03 137 240 0.740 10000.000 0.000 -0.176
32 96.00 1500.03 136 247 0.740 10000.000 0.000 -0.176
33 99.00 1500.03 133 229 0.740 10000.000 0.000 -0.176
34 102.00 1500.03 130 256 0.740 10000.000 0.000 -0.176
35 105.00 1500.03 139 247 0.740 10000.000 0.000 -0.176
36 108.00 1500.03 120 278 0.740 10000.000 0.000 -0.176
37 111.00 1500.03 136 249 0.740 10000.000 0.000 -0.176
38 114.00 1500.03 122 232 0.740 10000.000 0.000 -0.176
39 117.00 1500.03 138 284 0.740 10000.000 0.000 -0.176
40 120.00 1500.03 123 297 0.740 10000.000 0.000 -0.176
41 123.00 1500.03 116 289 0.740 10000.000 0.000 -0.176
42 126.00 1500.03 125 316 0.740 10000.000 0.000 -0.176
43 129.00 1500.03 111 357 0.740 10000.000 0.000 -0.176
44 132.00 1500.03 125 365 0.740 10000.000 0.000 -0.176
45 135.00 1500.03 122 369 0.740 10000.000 0.000 -0.176
46 138.00 1500.03 113 386 0.740 10000.000 0.000 -0.176
47 141.00 1500.03 118 381 0.740 10000.000 0.000 -0.176
48 144.00 1500.03 119 376 0.740 10000.000 0.000 -0.176
49 147.00 1500.03 120 343 0.740 10000.000 0.000 -0.176
50 150.00 1500.03 116 429 0.740 10000.000 0.000 -0.176
51 153.00 1500.03 146 374 0.740 10000.000 0.000 -0.176
52 156.00 1500.03 114 346 0.740 10000.000 0.000 -0.176
53 159.00 1500.03 112 348 0.740 10000.000 0.000 -0.176
54 162.00 1500.03 150 361 0.740 10000.000 0.000 -0.176
55 165.00 1500.03 110 325 0.740 10000.000 0.000 -0.176
56 168.00 1500.03 146 312 0.740 10000.000 0.000 -0.176
57 171.00 1500.03 132 315 0.740 10000.000 0.000 -0.176
58 174.00 1500.03 145 290 0.740 10000.000 0.000 -0.176
59 177.00 1500.03 137 309 0.740 10000.000 0.000 -0.176
60 180.00 1500.03 135 297 0.740 10000.000 0.000 -0.176
61 183.00 1500.03 143 255 0.740 10000.000 0.000 -0.176
62 186.00 1500.03 139 254 0.740 10000.000 0.000 -0.176
63 189.00 1500.03 153 265 0.740 10000.000 0.000 -0.176
64 192.00 1500.03 132 280 0.740 10000.000 0.000 -0.176
65 195.00 1500.03 128 279 0.740 10000.000 0.000 -0.176
66 198.00 1500.03 144 280 0.740 10000.000 0.000 -0.176
67 201.00 1500.03 129 251 0.740 10000.000 0.000 -0.176
68 204.00 1500.03 119 243 0.740 10000.000 0.000 -0.176
69 207.00 1500.03 161 273 0.740 10000.000 0.000 -0.176
70 210.00 1500.03 127 246 0.740 10000.000 0.000 -0.176
71 213.00 1500.03 114 241 0.740 10000.000 0.000 -0.176
72 216.00 1500.03 148 273 0.740 10000.000 0.000 -0.176
73 219.00 1500.03 116 276 0.740 10000.000 0.000 -0.176
74 222.00 1500.03 128 301 0.740 10000.000 0.000 -0.176
75 225.00 1500.03 125 319 0.740 10000.000 0.000 -0.176
76 228.00 1500.03 126 334 0.740 10000.000 0.000 -0.176
77 231.00 1500.03 130 342 0.740 10000.000 0.000 -0.176
78 234.00 1500.03 116 370 0.740 10000.000 0.000 -0.176
79 237.00 1500.03 131 362 0.740 10000.000 0.000 -0.176
80 240.00 1500.03 107 382 0.740 10000.000 0.000 -0.176
81 243.00 1500.03 127 402 0.740 10000.000 0.000 -0.176
82 246.00 1500.03 135 409 0.740 10000.000 0.000 -0.176
83 249.00 1500.03 139 349 0.740 10000.000 0.000 -0.176
84 252.00 1500.03 121 387 0.740 10000.000 0.000 -0.176
85 255.00 1500.03 133 390 0.740 10000.000 0.000 -0.176
86 258.00 1500.03 128 343 0.740 10000.000 0.000 -0.176
87 261.00 1500.03 125 339 0.740 10000.000 0.000 -0.176
88 264.00 1500.03 123 332 0.740 10000.000 0.000 -0.176
89 267.00 1500.03 135 315 0.740 10000.000 0.000 -0.176
90 270.00 1500.03 133 336 0.740 10000.000 0.000 -0.176
91 273.00 1500.03 137 277 0.740 10000.000 0.000 -0.176
92 276.00 1500.03 133 301 0.740 10000.000 0.000 -0.176
93 279.00 1500.03 133 288 0.740 10000.000 0.000 -0.176
94 282.00 1500.03 144 271 0.740 10000.000 0.000 -0.176
95 285.00 1500.03 136 253 0.740 10000.000 0.000 -0.176
96 288.00 1500.03 124 267 0.740 10000.000 0.000 -0.176
97 291.00 1500.03 140 271 0.740 10000.000 0.000 -0.176
98 294.00 1500.03 124 217 0.740 10000.000 0.000 -0.176
99 297.00 1500.03 140 248 0.740 10000.000 0.000 -0.176
100 300.00 1500.03 118 245 0.740 10000.000 0.000 -0.176
101 303.00 1500.03 102 214 0.740 10000.000 0.000 -0.176
102 306.00 1500.03 127 228 0.740 10000.000 0.000 -0.176
103 309.00 1500.03 137 240 0.740 10000.000 0.000 -0.176
104 312.00 1500.03 122 285 0.740 10000.000 0.000 -0.176
105 315.00 1500.03 134 275 0.740 10000.000 0.000 -0.176
106 318.00 1500.03 142 298 0.740 10000.000 0.000 -0.176
107 321.00 1500.03 141 307 0.740 10000.000 0.000 -0.176
108 324.00 1500.03 146 309 0.740 10000.000 0.000 -0.176
109 327.00 1500.03 130 298 0.740 10000.000 0.000 -0.176
110 330.00 1500.03 112 340 0.740 10000.000 0.000 -0.176
111 333.00 1500.03 144 352 0.740 10000.000 0.000 -0.176
112 336.00 1500.03 130 372 0.740 10000.000 0.000 -0.176
113 339.00 1500.03 118 370 0.740 10000.000 0.000 -0.176
114 342.00 1500.03 128 390 0.740 10000.000 0.000 -0.176
115 345.00 1500.03 132 398 0.740 10000.000 0.000 -0.176
116 348.00 1500.03 99 386 0.740 10000.000 0.000 -0.176
117 351.00 1500.03 117 352 0.740 10000.000 0.000 -0.176
118 354.00 1500.03 131 336 0.740 10000.000 0.000 -0.176
119 357.00 1500.03 113 358 0.740 10000.000 0.000 -0.176
120 360.00 1500.03 115 367 0.740 10000.000 0.000 -0.176
121 363.00 1500.03 124 352 0.740 10000.000 0.000 -0.176
122 366.00 1500.03 117 308 0.740 10000.000 0.000 -0.176
123 369.00 1500.03 123 344 0.740 10000.000 0.000 -0.176
124 372.00 1500.03 101 307 0.740 10000.000 0.000 -0.176
125 375.00 1500.03 109 308 0.740 10000.000 0.000 -0.176
126 378.00 1500.03 106 266 0.740 10000.000 0.000 -0.176
127 381.00 1500.03 111 261 0.740 10000.000 0.000 -0.176
128 384.00 1500.03 119 273 0.740 10000.000 0.000 -0.176
129 387.00 1500.03 111 256 0.740 10000.000 0.000 -0.176
130 390.00 1500.03 125 264 0.740 10000.000 0.000 -0.176
131 393.00 1500.03 133 230 0.740 10000.000 0.000 -0.176
132 396.00 1500.03 131 257 0.740 10000.000 0.000 -0.176
133 399.00 1500.03 143 233 0.740 10000.000 0.000 -0.176
134 402.00 1500.03 134 268 0.740 10000.000 0.000 -0.176
135 405.00 1500.03 136 240 0.740 10000.000 0.000 -0.176
136 408.00 1500.03 125 260 0.740 10000.000 0.000 -0.176
137 411.00 1500.03 155 290 0.740 10000.000 0.000 -0.176
138 414.00 1500.03 136 287 0.740 10000.000 0.000 -0.176
139 417.00 1500.03 142 303 0.740 10000.000 0.000 -0.176
140 420.00 1500.03 119 292 0.740 10000.000 0.000 -0.176
141 423.00 1500.03 119 315 0.740 10000.000 0.000 -0.176
142 426.00 1500.03 161 333 0.740 10000.000 0.000 -0.176
143 429.00 1500.03 138 331 0.740 10000.000 0.000 -0.176
144 432.00 1500.03 126 344 0.740 10000.000 0.000 -0.176
