# BinNR microsec tot-time (s)  O-Beam AUX Ampl(V) f(Hz) phase(deg) chi(pos)
0 0.00 1500.03 60 118 0.740 10000.000 0.000 1.165
1 3.00 1500.03 134 260 0.740 10000.000 0.000 1.165
2 6.00 1500.03 140 273 0.740 10000.000 0.000 1.165
3 9.00 1500.03 151 287 0.740 10000.000 0.000 1.165
4 12.00 1500.03 147 298 0.740 10000.000 0.000 1.165
5 15.00 1500.03 128 271 0.740 10000.000 0.000 1.165
6 18.00 1500.03 164 272 0.740 10000.000 0.000 1.165
7 21.00 1500.03 168 305 0.740 10000.000 0.000 1.165
8 24.00 1500.03 141 323 0.740 10000.000 0.000 1.165
9 27.00 1500.03 181 303 0.740 10000.000 0.000 1.165
10 30.00 1500.03 175 324 0.740 10000.000 0.000 1.165
11 33.00 1500.03 149 317 0.740 10000.000 0.000 1.165
12 36.00 1500.03 176 315 0.740 10000.000 0.000 1.165
13 39.00 1500.03 147 314 0.740 10000.000 0.000 1.165
14 42.00 1500.03 163 305 0.740 10000.000 0.000 1.165
15 45.00 1500.03 168 263 0.740 10000.000 0.000 1.165
16 48.00 1500.03 142 312 0.740 10000.000 0.000 1.165
17 51.00 1500.03 159 270 0.740 10000.000 0.000 1.165
18 54.00 1500.03 128 257 0.740 10000.000 0.000 1.165
19 57.00 1500.03 179 266 0.740 10000.000 0.000 1.165
20 60.00 1500.03 147 270 0.740 10000.000 0.000 1.165
21 63.00 1500.03 130 262 0.740 10000.000 0.000 1.165
22 66.00 1500.03 143 309 0.740 10000.000 0.000 1.165
23 69.00 1500.03 147 300 0.740 10000.000 0.000 1.165
24 72.00 1500.03 141 302 0.740 10000.000 0.000 1.165
25 75.00 1500.03 135 319 0.740 10000.000 0.000 1.165
26 78.00 1500.03 135 287 0.740 10000.000 0.000 1.165
27 81.00 1500.03 107 327 0.740 10000.000 0.000 1.165
28 84.00 1500.03 131 333 0.740 10000.000 0.000 1.165
29 87.00 1500.03 119 341 0.740 10000.000 0.000 1.165
30 90.00 1500.03 112 355 0.740 10000.000 0.000 1.165
31 93.00 1500.03 138 342 0.740 10000.000 0.000 1.165
32 96.00 1500.03 133 399 0.740 10000.000 0.000 1.165
33 99.00 1500.03 144 399 0.740 10000.000 0.000 1.165
34 102.00 1500.03 132 370 0.740 10000.000 0.000 1.165
35 105.00 1500.03 144 342 0.740 10000.000 0.000 1.165
36 108.00 1500.03 127 373 0.740 10000.000 0.000 1.165
37 111.00 1500.03 122 356 0.740 10000.000 0.000 1.165
38 114.00 1500.03 148 334 0.740 10000.000 0.000 1.165
39 117.00 1500.03 153 352 0.740 10000.000 0.000 1.165
40 120.00 1500.03 158 319 0.740 10000.000 0.000 1.165
41 123.00 1500.03 130 278 0.740 10000.000 0.000 1.165
42 126.00 1500.03 135 294 0.740 10000.000 0.000 1.165
43 129.00 1500.03 144 267 0.740 10000.000 0.000 1.165
44 132.00 1500.03 174 280 0.740 10000.000 0.000 1.165
45 135.00 1500.03 156 261 0.740 10000.000 0.000 1.165
46 138.00 1500.03 165 289 0.740 10000.000 0.000 1.165
47 141.00 1500.03 162 251 0.740 10000.000 0.000 1.165
48 144.00 1500.03 163 256 0.740 10000.000 0.000 1.165
49 147.00 1500.03 182 260 0.740 10000.000 0.000 1.165
50 150.00 1500.03 162 272 0.740 10000.000 0.000 1.165
51 153.00 1500.03 159 251 0.740 10000.000 0.000 1.165
52 156.00 1500.03 135 243 0.740 10000.000 0.000 1.165
53 159.00 1500.03 137 251 0.740 10000.000 0.000 1.165
54 162.00 1500.03 145 300 0.740 10000.000 0.000 1.165
55 165.00 1500.03 154 289 0.740 10000.000 0.000 1.165
56 168.00 1500.03 124 299 0.740 10000.000 0.000 1.165
57 171.00 1500.03 138 277 0.740 10000.000 0.000 1.165
58 174.00 1500.03 123 309 0.740 10000.000 0.000 1.165
59 177.00 1500.03 130 315 0.740 10000.000 0.000 1.165
60 180.00 1500.03 143 364 0.740 10000.000 0.000 1.165
61 183.00 1500.03 127 330 0.740 10000.000 0.000 1.165
62 186.00 1500.03 106 347 0.740 10000.000 0.000 1.165
63 189.00 1500.03 147 359 0.740 10000.000 0.000 1.165
64 192.00 1500.03 117 349 0.740 10000.000 0.000 1.165
65 195.00 1500.03 120 370 0.740 10000.000 0.000 1.165
66 198.00 1500.03 145 378 0.740 10000.000 0.000 1.165
67 201.00 1500.03 142 387 0.740 10000.000 0.000 1.165
68 204.00 1500.03 128 384 0.740 10000.000 0.000 1.165
69 207.00 1500.03 146 414 0.740 10000.000 0.000 1.165
70 210.00 1500.03 134 356 0.740 10000.000 0.000 1.165
71 213.00 1500.03 145 355 0.740 10000.000 0.000 1.165
72 216.00 1500.03 146 362 0.740 10000.000 0.000 1.165
73 219.00 1500.03 139 340 0.740 10000.000 0.000 1.165
74 222.00 1500.03 155 317 0.740 10000.000 0.000 1.165
75 225.00 1500.03 141 291 0.740 10000.000 0.000 1.165
76 228.00 1500.03 173 311 0.740 10000.000 0.000 1.165
77 231.00 1500.03 183 305 0.740 10000.000 0.000 1.165
78 234.00 1500.03 191 276 0.740 10000.000 0.000 1.165
79 237.00 1500.03 150 284 0.740 10000.000 0.000 1.165
80 240.00 1500.03 156 302 0.740 10000.000 0.000 1.165
81 243.00 1500.03 156 251 0.740 10000.000 0.000 1.165
82 246.00 1500.03 140 239 0.740 10000.000 0.000 1.165
83 249.00 1500.03 151 233 0.740 10000.000 0.000 1.165
84 252.00 1500.03 159 248 0.740 10000.000 0.000 1.165
85 255.00 1500.03 154 251 0.740 10000.000 0.000 1.165
86 258.00 1500.03 143 268 0.740 10000.000 0.000 1.165
87 261.00 1500.03 145 269 0.740 10000.000 0.000 1.165
88 264.00 1500.03 142 278 0.740 10000.000 0.000 1.165
89 267.00 1500.03 138 273 0.740 10000.000 0.000 1.165
90 270.00 1500.03 137 318 0.740 10000.000 0.000 1.165
91 273.00 1500.03 133 284 0.740 10000.000 0.000 1.165
92 276.00 1500.03 131 333 0.740 10000.000 0.000 1.165
93 279.00 1500.03 125 342 0.740 10000.000 0.000 1.165
94 282.00 1500.03 121 304 0.740 10000.000 0.000 1.165
95 285.00 1500.03 135 340 0.740 10000.000 0.000 1.165
96 288.00 1500.03 106 391 0.740 10000.000 0.000 1.165
97 291.00 1500.03 151 362 0.740 10000.000 0.000 1.165
98 294.00 1500.03 153 416 0.740 10000.000 0.000 1.165
99 297.00 1500.03 146 371 0.740 10000.000 0.000 1.165
100 300.00 1500.03 137 394 0.740 10000.000 0.000 1.165
101 303.00 1500.03 162 394 0.740 10000.000 0.000 1.165
102 306.00 1500.03 148 340 0.740 10000.000 0.000 1.165
103 309.00 1500.03 120 401 0.740 10000.000 0.000 1.165
104 312.00 1500.03 143 328 0.740 10000.000 0.000 1.165
105 315.00 1500.03 122 324 0.740 10000.000 0.000 1.165
106 318.00 1500.03 126 321 0.740 10000.000 0.000 1.165
107 321.00 1500.03 143 331 0.740 10000.000 0.000 1.165
108 324.00 1500.03 125 305 0.740 10000.000 0.000 1.165
109 327.00 1500.03 133 289 0.740 10000.000 0.000 1.165
110 330.00 1500.03 123 313 0.740 10000.000 0.000 1.165
111 333.00 1500.03 155 276 0.740 10000.000 0.000 1.165
112 336.00 1500.03 140 270 0.740 10000.000 0.000 1.165
113 339.00 1500.03 128 272 0.740 10000.000 0.000 1.165
114 342.00 1500.03 144 255 0.740 10000.000 0.000 1.165
115 345.00 1500.03 136 266 0.740 10000.000 0.000 1.165
116 348.00 1500.03 136 250 0.740 10000.000 0.000 1.165
117 351.00 1500.03 148 298 0.740 10000.000 0.000 1.165
118 354.00 1500.03 165 289 0.740 10000.000 0.000 1.165
119 357.00 1500.03 165 261 0.740 10000.000 0.000 1.165
120 360.00 1500.03 155 251 0.740 10000.000 0.000 1.165
121 363.00 1500.03 172 272 0.740 10000.000 0.000 1.165
122 366.00 1500.03 161 298 0.740 10000.000 0.000 1.165
123 369.00 1500.03 152 296 0.740 10000.000 0.000 1.165
124 372.00 1500.03 174 335 0.740 10000.000 0.000 1.165
125 375.00 1500.03 163 298 0.740 10000.000 0.000 1.165
126 378.00 1500.03 164 382 0.740 10000.000 0.000 1.165
127 381.00 1500.03 162 346 0.740 10000.000 0.000 1.165
128 384.00 1500.03 139 392 0.740 10000.000 0.000 1.165
129 387.00 1500.03 154 331 0.740 10000.000 0.000 1.165
130 390.00 1500.03 122 366 0.740 10000.000 0.000 1.165
131 393.00 1500.03 129 371 0.740 10000.000 0.000 1.165
132 396.00 1500.03 140 391 0.740 10000.000 0.000 1.165
133 399.00 1500.03 123 336 0.740 10000.000 0.000 1.165
134 402.00 1500.03 125 399 0.740 10000.000 0.000 1.165
135 405.00 1500.03 150 368 0.740 10000.000 0.000 1.165
136 408.00 1500.03 141 362 0.740 10000.000 0.000 1.165
137 411.00 1500.03 146 313 0.740 10000.000 0.000 1.165
138 414.00 1500.03 126 351 0.740 10000.000 0.000 1.165
139 417.00 1500.03 127 342 0.740 10000.000 0.000 1.165
140 420.00 1500.03 135 331 0.740 10000.000 0.000 1.165
141 423.00 1500.03 148 299 0.740 10000.000 0.000 1.165
142 426.00 1500.03 120 313 0.740 10000.000 0.000 1.165
143 429.00 1500.03 137 306 0.740 10000.000 0.000 1.165
144 432.00 1500.03 141 276 0.740 10000.000 0.000 1.165
