# BinNR microsec tot-time (s)  O-Beam AUX Ampl(V) f(Hz) phase(deg) chi(pos)
0 0.00 1500.02 78 200 0.740 10000.000 0.000 -0.989
1 3.00 1500.02 146 337 0.740 10000.000 0.000 -0.989
2 6.00 1500.02 154 360 0.740 10000.000 0.000 -0.989
3 9.00 1500.02 162 370 0.740 10000.000 0.000 -0.989
4 12.00 1500.02 164 383 0.740 10000.000 0.000 -0.989
5 15.00 1500.02 166 382 0.740 10000.000 0.000 -0.989
6 18.00 1500.02 171 417 0.740 10000.000 0.000 -0.989
7 21.00 1500.02 153 388 0.740 10000.000 0.000 -0.989
8 24.00 1500.02 194 411 0.740 10000.000 0.000 -0.989
9 27.00 1500.02 176 404 0.740 10000.000 0.000 -0.989
10 30.00 1500.02 194 424 0.740 10000.000 0.000 -0.989
11 33.00 1500.02 194 441 0.740 10000.000 0.000 -0.989
12 36.00 1500.02 174 462 0.740 10000.000 0.000 -0.989
13 39.00 1500.02 172 389 0.740 10000.000 0.000 -0.989
14 42.00 1500.02 185 403 0.740 10000.000 0.000 -0.989
15 45.00 1500.02 165 374 0.740 10000.000 0.000 -0.989
16 48.00 1500.02 188 381 0.740 10000.000 0.000 -0.989
17 51.00 1500.02 193 407 0.740 10000.000 0.000 -0.989
18 54.00 1500.02 167 400 0.740 10000.000 0.000 -0.989
19 57.00 1500.02 167 373 0.740 10000.000 0.000 -0.989
20 60.00 1500.02 171 391 0.740 10000.000 0.000 -0.989
21 63.00 1500.02 158 370 0.740 10000.000 0.000 -0.989
22 66.00 1500.02 171 371 0.740 10000.000 0.000 -0.989
23 69.00 1500.02 147 399 0.740 10000.000 0.000 -0.989
24 72.00 1500.02 160 404 0.740 10000.000 0.000 -0.989
25 75.00 1500.02 162 398 0.740 10000.000 0.000 -0.989
26 78.00 1500.02 146 409 0.740 10000.000 0.000 -0.989
27 81.00 1500.02 168 465 0.740 10000.000 0.000 -0.989
28 84.00 1500.02 157 488 0.740 10000.000 0.000 -0.989
29 87.00 1500.02 152 470 0.740 10000.000 0.000 -0.989
30 90.00 1500.02 178 477 0.740 10000.000 0.000 -0.989
31 93.00 1500.02 159 505 0.740 10000.000 0.000 -0.989
32 96.00 1500.02 152 462 0.740 10000.000 0.000 -0.989
33 99.00 1500.02 161 519 0.740 10000.000 0.000 -0.989
34 102.00 1500.02 188 491 0.740 10000.000 0.000 -0.989
35 105.00 1500.02 173 506 0.740 10000.000 0.000 -0.989
36 108.00 1500.02 195 517 0.740 10000.000 0.000 -0.989
37 111.00 1500.02 135 454 0.740 10000.000 0.000 -0.989
38 114.00 1500.02 168 413 0.740 10000.000 0.000 -0.989
39 117.00 1500.02 206 436 0.740 10000.000 0.000 -0.989
40 120.00 1500.02 158 420 0.740 10000.000 0.000 -0.989
41 123.00 1500.02 190 384 0.740 10000.000 0.000 -0.989
42 126.00 1500.02 182 420 0.740 10000.000 0.000 -0.989
43 129.00 1500.02 174 387 0.740 10000.000 0.000 -0.989
44 132.00 1500.02 191 386 0.740 10000.000 0.000 -0.989
45 135.00 1500.02 179 377 0.740 10000.000 0.000 -0.989
46 138.00 1500.02 183 360 0.740 10000.000 0.000 -0.989
47 141.00 1500.02 181 377 0.740 10000.000 0.000 -0.989
48 144.00 1500.02 180 343 0.740 10000.000 0.000 -0.989
49 147.00 1500.02 186 367 0.740 10000.000 0.000 -0.989
50 150.00 1500.02 177 398 0.740 10000.000 0.000 -0.989
51 153.00 1500.02 170 373 0.740 10000.000 0.000 -0.989
52 156.00 1500.02 170 352 0.740 10000.000 0.000 -0.989
53 159.00 1500.02 157 343 0.740 10000.000 0.000 -0.989
54 162.00 1500.02 168 376 0.740 10000.000 0.000 -0.989
55 165.00 1500.02 148 405 0.740 10000.000 0.000 -0.989
56 168.00 1500.02 150 403 0.740 10000.000 0.000 -0.989
57 171.00 1500.02 143 380 0.740 10000.000 0.000 -0.989
58 174.00 1500.02 174 445 0.740 10000.000 0.000 -0.989
59 177.00 1500.02 145 458 0.740 10000.000 0.000 -0.989
60 180.00 1500.02 166 453 0.740 10000.000 0.000 -0.989
61 183.00 1500.02 148 474 0.740 10000.000 0.000 -0.989
62 186.00 1500.02 180 474 0.740 10000.000 0.000 -0.989
63 189.00 1500.02 160 486 0.740 10000.000 0.000 -0.989
64 192.00 1500.02 161 468 0.740 10000.000 0.000 -0.989
65 195.00 1500.02 151 491 0.740 10000.000 0.000 -0.989
66 198.00 1500.02 167 510 0.740 10000.000 0.000 -0.989
67 201.00 1500.02 155 489 0.740 10000.000 0.000 -0.989
68 204.00 1500.02 154 493 0.740 10000.000 0.000 -0.989
69 207.00 1500.02 190 458 0.740 10000.000 0.000 -0.989
70 210.00 1500.02 186 480 0.740 10000.000 0.000 -0.989
71 213.00 1500.02 177 427 0.740 10000.000 0.000 -0.989
72 216.00 1500.02 175 434 0.740 10000.000 0.000 -0.989
73 219.00 1500.02 162 430 0.740 10000.000 0.000 -0.989
74 222.00 1500.02 151 421 0.740 10000.000 0.000 -0.989
75 225.00 1500.02 196 413 0.740 10000.000 0.000 -0.989
76 228.00 1500.02 192 412 0.740 10000.000 0.000 -0.989
77 231.00 1500.02 175 364 0.740 10000.000 0.000 -0.989
78 234.00 1500.02 213 372 0.740 10000.000 0.000 -0.989
79 237.00 1500.02 198 384 0.740 10000.000 0.000 -0.989
80 240.00 1500.02 185 341 0.740 10000.000 0.000 -0.989
81 243.00 1500.02 213 337 0.740 10000.000 0.000 -0.989
82 246.00 1500.02 170 367 0.740 10000.000 0.000 -0.989
83 249.00 1500.02 168 330 0.740 10000.000 0.000 -0.989
84 252.00 1500.02 167 325 0.740 10000.000 0.000 -0.989
85 255.00 1500.02 178 344 0.740 10000.000 0.000 -0.989
86 258.00 1500.02 154 352 0.740 10000.000 0.000 -0.989
87 261.00 1500.02 175 386 0.740 10000.000 0.000 -0.989
88 264.00 1500.02 159 361 0.740 10000.000 0.000 -0.989
89 267.00 1500.02 156 384 0.740 10000.000 0.000 -0.989
90 270.00 1500.02 160 424 0.740 10000.000 0.000 -0.989
91 273.00 1500.02 175 390 0.740 10000.000 0.000 -0.989
92 276.00 1500.02 150 465 0.740 10000.000 0.000 -0.989
93 279.00 1500.02 152 430 0.740 10000.000 0.000 -0.989
94 282.00 1500.02 172 479 0.740 10000.000 0.000 -0.989
95 285.00 1500.02 144 447 0.740 10000.000 0.000 -0.989
96 288.00 1500.02 173 507 0.740 10000.000 0.000 -0.989
97 291.00 1500.02 172 466 0.740 10000.000 0.000 -0.989
98 294.00 1500.02 182 504 0.740 10000.000 0.000 -0.989
99 297.00 1500.02 155 483 0.740 10000.000 0.000 -0.989
100 300.00 1500.02 160 499 0.740 10000.000 0.000 -0.989
101 303.00 1500.02 163 500 0.740 10000.000 0.000 -0.989
102 306.00 1500.02 167 498 0.740 10000.000 0.000 -0.989
103 309.00 1500.02 174 434 0.740 10000.000 0.000 -0.989
104 312.00 1500.02 201 456 0.740 10000.000 0.000 -0.989
105 315.00 1500.02 185 451 0.740 10000.000 0.000 -0.989
106 318.00 1500.02 154 466 0.740 10000.000 0.000 -0.989
107 321.00 1500.02 184 389 0.740 10000.000 0.000 -0.989
108 324.00 1500.02 157 438 0.740 10000.000 0.000 -0.989
109 327.00 1500.02 153 403 0.740 10000.000 0.000 -0.989
110 330.00 1500.02 139 401 0.740 10000.000 0.000 -0.989
111 333.00 1500.02 157 362 0.740 10000.000 0.000 -0.989
112 336.00 1500.02 136 342 0.740 10000.000 0.000 -0.989
113 339.00 1500.02 149 348 0.740 10000.000 0.000 -0.989
114 342.00 1500.02 190 399 0.740 10000.000 0.000 -0.989
115 345.00 1500.02 163 366 0.740 10000.000 0.000 -0.989
116 348.00 1500.02 193 359 0.740 10000.000 0.000 -0.989
117 351.00 1500.02 183 341 0.740 10000.000 0.000 -0.989
118 354.00 1500.02 185 374 0.740 10000.000 0.000 -0.989
119 357.00 1500.02 202 298 0.740 10000.000 0.000 -0.989
120 360.00 1500.02 211 351 0.740 10000.000 0.000 -0.989
121 363.00 1500.02 166 387 0.740 10000.000 0.000 -0.989
122 366.00 1500.02 188 409 0.740 10000.000 0.000 -0.989
123 369.00 1500.02 212 393 0.740 10000.000 0.000 -0.989
124 372.00 1500.02 173 401 0.740 10000.000 0.000 -0.989
125 375.00 1500.02 193 450 0.740 10000.000 0.000 -0.989
126 378.00 1500.02 192 434 0.740 10000.000 0.000 -0.989
127 381.00 1500.02 181 433 0.740 10000.000 0.000 -0.989
128 384.00 1500.02 190 495 0.740 10000.000 0.000 -0.989
129 387.00 1500.02 165 457 0.740 10000.000 0.000 -0.989
130 390.00 1500.02 167 515 0.740 10000.000 0.000 -0.989
131 393.00 1500.02 155 478 0.740 10000.000 0.000 -0.989
132 396.00 1500.02 151 502 0.740 10000.000 0.000 -0.989
133 399.00 1500.02 178 465 0.740 10000.000 0.000 -0.989
134 402.00 1500.02 158 483 0.740 10000.000 0.000 -0.989
135 405.00 1500.02 133 458 0.740 10000.000 0.000 -0.989
136 408.00 1500.02 142 504 0.740 10000.000 0.000 -0.989
137 411.00 1500.02 173 470 0.740 10000.000 0.000 -0.989
138 414.00 1500.02 175 484 0.740 10000.000 0.000 -0.989
139 417.00 1500.02 145 421 0.740 10000.000 0.000 -0.989
140 420.00 1500.02 141 436 0.740 10000.000 0.000 -0.989
141 423.00 1500.02 172 394 0.740 10000.000 0.000 -0.989
142 426.00 1500.02 162 412 0.740 10000.000 0.000 -0.989
143 429.00 1500.02 155 366 0.740 10000.000 0.000 -0.989
144 432.00 1500.02 161 381 0.740 10000.000 0.000 -0.989
