# BinNR microsec tot-time (s)  O-Beam AUX Ampl(V) f(Hz) phase(deg) chi(pos)
0 0.00 1500.00 69 109 0.740 10000.000 0.000 1.340
1 3.00 1500.00 109 210 0.740 10000.000 0.000 1.340
2 6.00 1500.00 132 224 0.740 10000.000 0.000 1.340
3 9.00 1500.00 115 183 0.740 10000.000 0.000 1.340
4 12.00 1500.00 104 213 0.740 10000.000 0.000 1.340
5 15.00 1500.00 145 205 0.740 10000.000 0.000 1.340
6 18.00 1500.00 135 207 0.740 10000.000 0.000 1.340
7 21.00 1500.00 115 220 0.740 10000.000 0.000 1.340
8 24.00 1500.00 117 231 0.740 10000.000 0.000 1.340
9 27.00 1500.00 136 232 0.740 10000.000 0.000 1.340
10 30.00 1500.00 114 221 0.740 10000.000 0.000 1.340
11 33.00 1500.00 115 220 0.740 10000.000 0.000 1.340
12 36.00 1500.00 135 253 0.740 10000.000 0.000 1.340
13 39.00 1500.00 136 250 0.740 10000.000 0.000 1.340
14 42.00 1500.00 105 221 0.740 10000.000 0.000 1.340
15 45.00 1500.00 114 193 0.740 10000.000 0.000 1.340
16 48.00 1500.00 138 213 0.740 10000.000 0.000 1.340
17 51.00 1500.00 131 205 0.740 10000.000 0.000 1.340
18 54.00 1500.00 117 196 0.740 10000.000 0.000 1.340
19 57.00 1500.00 120 202 0.740 10000.000 0.000 1.340
20 60.00 1500.00 118 199 0.740 10000.000 0.000 1.340
21 63.00 1500.00 125 200 0.740 10000.000 0.000 1.340
22 66.00 1500.00 118 203 0.740 10000.000 0.000 1.340
23 69.00 1500.00 106 194 0.740 10000.000 0.000 1.340
24 72.00 1500.00 124 218 0.740 10000.000 0.000 1.340
25 75.00 1500.00 113 221 0.740 10000.000 0.000 1.340
26 78.00 1500.00 98 244 0.740 10000.000 0.000 1.340
27 81.00 1500.00 91 231 0.740 10000.000 0.000 1.340
28 84.00 1500.00 92 243 0.740 10000.000 0.000 1.340
29 87.00 1500.00 128 260 0.740 10000.000 0.000 1.340
30 90.00 1500.00 100 255 0.740 10000.000 0.000 1.340
31 93.00 1500.00 112 258 0.740 10000.000 0.000 1.340
32 96.00 1500.00 106 253 0.740 10000.000 0.000 1.340
33 99.00 1500.00 119 294 0.740 10000.000 0.000 1.340
34 102.00 1500.00 103 282 0.740 10000.000 0.000 1.340
35 105.00 1500.00 115 266 0.740 10000.000 0.000 1.340
36 108.00 1500.00 121 298 0.740 10000.000 0.000 1.340
37 111.00 1500.00 133 252 0.740 10000.000 0.000 1.340
38 114.00 1500.00 120 250 0.740 10000.000 0.000 1.340
39 117.00 1500.00 129 249 0.740 10000.000 0.000 1.340
40 120.00 1500.00 143 236 0.740 10000.000 0.000 1.340
41 123.00 1500.00 138 210 0.740 10000.000 0.000 1.340
42 126.00 1500.00 125 218 0.740 10000.000 0.000 1.340
43 129.00 1500.00 132 206 0.740 10000.000 0.000 1.340
44 132.00 1500.00 162 230 0.740 10000.000 0.000 1.340
45 135.00 1500.00 122 184 0.740 10000.000 0.000 1.340
46 138.00 1500.00 145 206 0.740 10000.000 0.000 1.340
47 141.00 1500.00 126 177 0.740 10000.000 0.000 1.340
48 144.00 1500.00 122 210 0.740 10000.000 0.000 1.340
49 147.00 1500.00 136 199 0.740 10000.000 0.000 1.340
50 150.00 1500.00 119 205 0.740 10000.000 0.000 1.340
51 153.00 1500.00 138 162 0.740 10000.000 0.000 1.340
52 156.00 1500.00 111 197 0.740 10000.000 0.000 1.340
53 159.00 1500.00 108 176 0.740 10000.000 0.000 1.340
54 162.00 1500.00 108 196 0.740 10000.000 0.000 1.340
55 165.00 1500.00 123 250 0.740 10000.000 0.000 1.340
56 168.00 1500.00 113 202 0.740 10000.000 0.000 1.340
57 171.00 1500.00 110 208 0.740 10000.000 0.000 1.340
58 174.00 1500.00 100 232 0.740 10000.000 0.000 1.340
59 177.00 1500.00 101 249 0.740 10000.000 0.000 1.340
60 180.00 1500.00 120 243 0.740 10000.000 0.000 1.340
61 183.00 1500.00 114 233 0.740 10000.000 0.000 1.340
62 186.00 1500.00 116 254 0.740 10000.000 0.000 1.340
63 189.00 1500.00 115 255 0.740 10000.000 0.000 1.340
64 192.00 1500.00 109 258 0.740 10000.000 0.000 1.340
65 195.00 1500.00 116 292 0.740 10000.000 0.000 1.340
66 198.00 1500.00 101 295 0.740 10000.000 0.000 1.340
67 201.00 1500.00 111 289 0.740 10000.000 0.000 1.340
68 204.00 1500.00 98 291 0.740 10000.000 0.000 1.340
69 207.00 1500.00 123 269 0.740 10000.000 0.000 1.340
70 210.00 1500.00 127 278 0.740 10000.000 0.000 1.340
71 213.00 1500.00 116 214 0.740 10000.000 0.000 1.340
72 216.00 1500.00 137 235 0.740 10000.000 0.000 1.340
73 219.00 1500.00 123 222 0.740 10000.000 0.000 1.340
74 222.00 1500.00 110 234 0.740 10000.000 0.000 1.340
75 225.00 1500.00 118 196 0.740 10000.000 0.000 1.340
76 228.00 1500.00 132 220 0.740 10000.000 0.000 1.340
77 231.00 1500.00 128 212 0.740 10000.000 0.000 1.340
78 234.00 1500.00 140 214 0.740 10000.000 0.000 1.340
79 237.00 1500.00 132 189 0.740 10000.000 0.000 1.340
80 240.00 1500.00 132 191 0.740 10000.000 0.000 1.340
81 243.00 1500.00 123 196 0.740 10000.000 0.000 1.340
82 246.00 1500.00 141 207 0.740 10000.000 0.000 1.340
83 249.00 1500.00 140 190 0.740 10000.000 0.000 1.340
84 252.00 1500.00 137 197 0.740 10000.000 0.000 1.340
85 255.00 1500.00 153 223 0.740 10000.000 0.000 1.340
86 258.00 1500.00 120 187 0.740 10000.000 0.000 1.340
87 261.00 1500.00 97 188 0.740 10000.000 0.000 1.340
88 264.00 1500.00 121 224 0.740 10000.000 0.000 1.340
89 267.00 1500.00 116 220 0.740 10000.000 0.000 1.340
90 270.00 1500.00 118 233 0.740 10000.000 0.000 1.340
91 273.00 1500.00 123 225 0.740 10000.000 0.000 1.340
92 276.00 1500.00 90 224 0.740 10000.000 0.000 1.340
93 279.00 1500.00 118 256 0.740 10000.000 0.000 1.340
94 282.00 1500.00 107 233 0.740 10000.000 0.000 1.340
95 285.00 1500.00 132 249 0.740 10000.000 0.000 1.340
96 288.00 1500.00 128 236 0.740 10000.000 0.000 1.340
97 291.00 1500.00 113 258 0.740 10000.000 0.000 1.340
98 294.00 1500.00 109 261 0.740 10000.000 0.000 1.340
99 297.00 1500.00 106 256 0.740 10000.000 0.000 1.340
100 300.00 1500.00 136 269 0.740 10000.000 0.000 1.340
101 303.00 1500.00 137 272 0.740 10000.000 0.000 1.340
102 306.00 1500.00 122 264 0.740 10000.000 0.000 1.340
103 309.00 1500.00 124 266 0.740 10000.000 0.000 1.340
104 312.00 1500.00 129 261 0.740 10000.000 0.000 1.340
105 315.00 1500.00 120 256 0.740 10000.000 0.000 1.340
106 318.00 1500.00 119 227 0.740 10000.000 0.000 1.340
107 321.00 1500.00 126 229 0.740 10000.000 0.000 1.340
108 324.00 1500.00 101 229 0.740 10000.000 0.000 1.340
109 327.00 1500.00 110 234 0.740 10000.000 0.000 1.340
110 330.00 1500.00 105 236 0.740 10000.000 0.000 1.340
111 333.00 1500.00 111 188 0.740 10000.000 0.000 1.340
112 336.00 1500.00 119 206 0.740 10000.000 0.000 1.340
113 339.00 1500.00 104 197 0.740 10000.000 0.000 1.340
114 342.00 1500.00 108 217 0.740 10000.000 0.000 1.340
115 345.00 1500.00 106 177 0.740 10000.000 0.000 1.340
116 348.00 1500.00 113 190 0.740 10000.000 0.000 1.340
117 351.00 1500.00 142 185 0.740 10000.000 0.000 1.340
118 354.00 1500.00 121 208 0.740 10000.000 0.000 1.340
119 357.00 1500.00 143 204 0.740 10000.000 0.000 1.340
120 360.00 1500.00 109 182 0.740 10000.000 0.000 1.340
121 363.00 1500.00 135 218 0.740 10000.000 0.000 1.340
122 366.00 1500.00 140 170 0.740 10000.000 0.000 1.340
123 369.00 1500.00 153 200 0.740 10000.000 0.000 1.340
124 372.00 1500.00 127 220 0.740 10000.000 0.000 1.340
125 375.00 1500.00 135 232 0.740 10000.000 0.000 1.340
126 378.00 1500.00 133 254 0.740 10000.000 0.000 1.340
127 381.00 1500.00 150 225 0.740 10000.000 0.000 1.340
128 384.00 1500.00 123 250 0.740 10000.000 0.000 1.340
129 387.00 1500.00 143 265 0.740 10000.000 0.000 1.340
130 390.00 1500.00 136 276 0.740 10000.000 0.000 1.340
131 393.00 1500.00 108 273 0.740 10000.000 0.000 1.340
132 396.00 1500.00 114 280 0.740 10000.000 0.000 1.340
133 399.00 1500.00 131 271 0.740 10000.000 0.000 1.340
134 402.00 1500.00 113 302 0.740 10000.000 0.000 1.340
135 405.00 1500.00 103 263 0.740 10000.000 0.000 1.340
136 408.00 1500.00 113 283 0.740 10000.000 0.000 1.340
137 411.00 1500.00 101 268 0.740 10000.000 0.000 1.340
138 414.00 1500.00 83 257 0.740 10000.000 0.000 1.340
139 417.00 1500.00 117 231 0.740 10000.000 0.000 1.340
140 420.00 1500.00 105 229 0.740 10000.000 0.000 1.340
141 423.00 1500.00 113 240 0.740 10000.000 0.000 1.340
142 426.00 1500.00 98 200 0.740 10000.000 0.000 1.340
143 429.00 1500.00 111 203 0.740 10000.000 0.000 1.340
144 432.00 1500.00 113 207 0.740 10000.000 0.000 1.340
