# BinNR microsec tot-time (s)  O-Beam AUX Ampl(V) f(Hz) phase(deg) chi(pos)
0 0.00 1200.02 181 393 2.300 10000.000 0.000 -0.769
1 3.00 1200.02 357 844 2.300 10000.000 0.000 -0.769
2 6.00 1200.02 333 755 2.300 10000.000 0.000 -0.769
3 9.00 1200.02 383 704 2.300 10000.000 0.000 -0.769
4 12.00 1200.02 330 727 2.300 10000.000 0.000 -0.769
5 15.00 1200.02 351 637 2.300 10000.000 0.000 -0.769
6 18.00 1200.02 331 618 2.300 10000.000 0.000 -0.769
7 21.00 1200.02 334 508 2.300 10000.000 0.000 -0.769
8 24.00 1200.02 322 503 2.300 10000.000 0.000 -0.769
9 27.00 1200.02 265 492 2.300 10000.000 0.000 -0.769
10 30.00 1200.02 283 514 2.300 10000.000 0.000 -0.769
11 33.00 1200.02 285 549 2.300 10000.000 0.000 -0.769
12 36.00 1200.02 269 589 2.300 10000.000 0.000 -0.769
13 39.00 1200.02 222 659 2.300 10000.000 0.000 -0.769
14 42.00 1200.02 244 732 2.300 10000.000 0.000 -0.769
15 45.00 1200.02 237 765 2.300 10000.000 0.000 -0.769
16 48.00 1200.02 240 907 2.300 10000.000 0.000 -0.769
17 51.00 1200.02 214 852 2.300 10000.000 0.000 -0.769
18 54.00 1200.02 221 938 2.300 10000.000 0.000 -0.769
19 57.00 1200.02 205 1008 2.300 10000.000 0.000 -0.769
20 60.00 1200.02 208 929 2.300 10000.000 0.000 -0.769
21 63.00 1200.02 232 955 2.300 10000.000 0.000 -0.769
22 66.00 1200.02 244 938 2.300 10000.000 0.000 -0.769
23 69.00 1200.02 264 957 2.300 10000.000 0.000 -0.769
24 72.00 1200.02 277 982 2.300 10000.000 0.000 -0.769
25 75.00 1200.02 296 965 2.300 10000.000 0.000 -0.769
26 78.00 1200.02 299 960 2.300 10000.000 0.000 -0.769
27 81.00 1200.02 314 929 2.300 10000.000 0.000 -0.769
28 84.00 1200.02 332 889 2.300 10000.000 0.000 -0.769
29 87.00 1200.02 352 814 2.300 10000.000 0.000 -0.769
30 90.00 1200.02 359 785 2.300 10000.000 0.000 -0.769
31 93.00 1200.02 330 685 2.300 10000.000 0.000 -0.769
32 96.00 1200.02 359 642 2.300 10000.000 0.000 -0.769
33 99.00 1200.02 352 557 2.300 10000.000 0.000 -0.769
34 102.00 1200.02 363 492 2.300 10000.000 0.000 -0.769
35 105.00 1200.02 317 458 2.300 10000.000 0.000 -0.769
36 108.00 1200.02 361 402 2.300 10000.000 0.000 -0.769
37 111.00 1200.02 324 422 2.300 10000.000 0.000 -0.769
38 114.00 1200.02 330 419 2.300 10000.000 0.000 -0.769
39 117.00 1200.02 374 399 2.300 10000.000 0.000 -0.769
40 120.00 1200.02 362 415 2.300 10000.000 0.000 -0.769
41 123.00 1200.02 346 460 2.300 10000.000 0.000 -0.769
42 126.00 1200.02 318 500 2.300 10000.000 0.000 -0.769
43 129.00 1200.02 300 510 2.300 10000.000 0.000 -0.769
44 132.00 1200.02 298 556 2.300 10000.000 0.000 -0.769
45 135.00 1200.02 260 620 2.300 10000.000 0.000 -0.769
46 138.00 1200.02 244 683 2.300 10000.000 0.000 -0.769
47 141.00 1200.02 277 770 2.300 10000.000 0.000 -0.769
48 144.00 1200.02 262 838 2.300 10000.000 0.000 -0.769
49 147.00 1200.02 236 839 2.300 10000.000 0.000 -0.769
50 150.00 1200.02 221 932 2.300 10000.000 0.000 -0.769
51 153.00 1200.02 206 926 2.300 10000.000 0.000 -0.769
52 156.00 1200.02 250 970 2.300 10000.000 0.000 -0.769
53 159.00 1200.02 232 923 2.300 10000.000 0.000 -0.769
54 162.00 1200.02 275 954 2.300 10000.000 0.000 -0.769
55 165.00 1200.02 264 1050 2.300 10000.000 0.000 -0.769
56 168.00 1200.02 258 972 2.300 10000.000 0.000 -0.769
57 171.00 1200.02 251 934 2.300 10000.000 0.000 -0.769
58 174.00 1200.02 266 961 2.300 10000.000 0.000 -0.769
59 177.00 1200.02 277 982 2.300 10000.000 0.000 -0.769
60 180.00 1200.02 317 932 2.300 10000.000 0.000 -0.769
61 183.00 1200.02 310 854 2.300 10000.000 0.000 -0.769
62 186.00 1200.02 317 848 2.300 10000.000 0.000 -0.769
63 189.00 1200.02 313 735 2.300 10000.000 0.000 -0.769
64 192.00 1200.02 317 731 2.300 10000.000 0.000 -0.769
65 195.00 1200.02 365 639 2.300 10000.000 0.000 -0.769
66 198.00 1200.02 358 590 2.300 10000.000 0.000 -0.769
67 201.00 1200.02 340 518 2.300 10000.000 0.000 -0.769
68 204.00 1200.02 308 517 2.300 10000.000 0.000 -0.769
69 207.00 1200.02 357 483 2.300 10000.000 0.000 -0.769
70 210.00 1200.02 344 423 2.300 10000.000 0.000 -0.769
71 213.00 1200.02 343 387 2.300 10000.000 0.000 -0.769
72 216.00 1200.02 351 420 2.300 10000.000 0.000 -0.769
73 219.00 1200.02 324 400 2.300 10000.000 0.000 -0.769
74 222.00 1200.02 323 461 2.300 10000.000 0.000 -0.769
75 225.00 1200.02 316 449 2.300 10000.000 0.000 -0.769
76 228.00 1200.02 291 521 2.300 10000.000 0.000 -0.769
77 231.00 1200.02 295 569 2.300 10000.000 0.000 -0.769
78 234.00 1200.02 297 607 2.300 10000.000 0.000 -0.769
79 237.00 1200.02 222 629 2.300 10000.000 0.000 -0.769
80 240.00 1200.02 287 734 2.300 10000.000 0.000 -0.769
81 243.00 1200.02 267 801 2.300 10000.000 0.000 -0.769
82 246.00 1200.02 247 862 2.300 10000.000 0.000 -0.769
83 249.00 1200.02 233 924 2.300 10000.000 0.000 -0.769
84 252.00 1200.02 275 963 2.300 10000.000 0.000 -0.769
85 255.00 1200.02 265 1009 2.300 10000.000 0.000 -0.769
86 258.00 1200.02 288 1021 2.300 10000.000 0.000 -0.769
87 261.00 1200.02 271 964 2.300 10000.000 0.000 -0.769
88 264.00 1200.02 290 988 2.300 10000.000 0.000 -0.769
89 267.00 1200.02 333 898 2.300 10000.000 0.000 -0.769
90 270.00 1200.02 330 889 2.300 10000.000 0.000 -0.769
91 273.00 1200.02 281 976 2.300 10000.000 0.000 -0.769
92 276.00 1200.02 314 920 2.300 10000.000 0.000 -0.769
93 279.00 1200.02 266 952 2.300 10000.000 0.000 -0.769
94 282.00 1200.02 333 876 2.300 10000.000 0.000 -0.769
95 285.00 1200.02 271 858 2.300 10000.000 0.000 -0.769
96 288.00 1200.02 295 801 2.300 10000.000 0.000 -0.769
97 291.00 1200.02 276 728 2.300 10000.000 0.000 -0.769
98 294.00 1200.02 298 672 2.300 10000.000 0.000 -0.769
99 297.00 1200.02 277 604 2.300 10000.000 0.000 -0.769
100 300.00 1200.02 286 563 2.300 10000.000 0.000 -0.769
101 303.00 1200.02 261 493 2.300 10000.000 0.000 -0.769
102 306.00 1200.02 295 483 2.300 10000.000 0.000 -0.769
103 309.00 1200.02 281 441 2.300 10000.000 0.000 -0.769
104 312.00 1200.02 285 435 2.300 10000.000 0.000 -0.769
105 315.00 1200.02 318 411 2.300 10000.000 0.000 -0.769
106 318.00 1200.02 366 384 2.300 10000.000 0.000 -0.769
107 321.00 1200.02 359 433 2.300 10000.000 0.000 -0.769
108 324.00 1200.02 386 438 2.300 10000.000 0.000 -0.769
109 327.00 1200.02 350 463 2.300 10000.000 0.000 -0.769
110 330.00 1200.02 361 528 2.300 10000.000 0.000 -0.769
111 333.00 1200.02 311 574 2.300 10000.000 0.000 -0.769
112 336.00 1200.02 354 653 2.300 10000.000 0.000 -0.769
113 339.00 1200.02 345 701 2.300 10000.000 0.000 -0.769
114 342.00 1200.02 389 801 2.300 10000.000 0.000 -0.769
115 345.00 1200.02 356 827 2.300 10000.000 0.000 -0.769
116 348.00 1200.02 337 898 2.300 10000.000 0.000 -0.769
117 351.00 1200.02 343 895 2.300 10000.000 0.000 -0.769
118 354.00 1200.02 299 945 2.300 10000.000 0.000 -0.769
119 357.00 1200.02 335 885 2.300 10000.000 0.000 -0.769
120 360.00 1200.02 326 981 2.300 10000.000 0.000 -0.769
121 363.00 1200.02 324 920 2.300 10000.000 0.000 -0.769
122 366.00 1200.02 299 972 2.300 10000.000 0.000 -0.769
123 369.00 1200.02 286 929 2.300 10000.000 0.000 -0.769
124 372.00 1200.02 255 968 2.300 10000.000 0.000 -0.769
125 375.00 1200.02 249 998 2.300 10000.000 0.000 -0.769
126 378.00 1200.02 225 963 2.300 10000.000 0.000 -0.769
127 381.00 1200.02 214 929 2.300 10000.000 0.000 -0.769
128 384.00 1200.02 216 829 2.300 10000.000 0.000 -0.769
129 387.00 1200.02 219 781 2.300 10000.000 0.000 -0.769
130 390.00 1200.02 254 847 2.300 10000.000 0.000 -0.769
131 393.00 1200.02 231 692 2.300 10000.000 0.000 -0.769
132 396.00 1200.02 224 644 2.300 10000.000 0.000 -0.769
133 399.00 1200.02 245 569 2.300 10000.000 0.000 -0.769
134 402.00 1200.02 257 554 2.300 10000.000 0.000 -0.769
135 405.00 1200.02 288 448 2.300 10000.000 0.000 -0.769
136 408.00 1200.02 308 449 2.300 10000.000 0.000 -0.769
137 411.00 1200.02 304 441 2.300 10000.000 0.000 -0.769
138 414.00 1200.02 302 497 2.300 10000.000 0.000 -0.769
139 417.00 1200.02 314 545 2.300 10000.000 0.000 -0.769
140 420.00 1200.02 334 622 2.300 10000.000 0.000 -0.769
141 423.00 1200.02 351 675 2.300 10000.000 0.000 -0.769
