# BinNR microsec tot-time (s)  O-Beam AUX Ampl(V) f(Hz) phase(deg) chi(pos)
0 0.00 1200.03 177 359 2.640 10000.000 0.000 -0.890
1 3.00 1200.03 355 738 2.640 10000.000 0.000 -0.890
2 6.00 1200.03 357 714 2.640 10000.000 0.000 -0.890
3 9.00 1200.03 333 711 2.640 10000.000 0.000 -0.890
4 12.00 1200.03 358 678 2.640 10000.000 0.000 -0.890
5 15.00 1200.03 321 561 2.640 10000.000 0.000 -0.890
6 18.00 1200.03 332 555 2.640 10000.000 0.000 -0.890
7 21.00 1200.03 317 489 2.640 10000.000 0.000 -0.890
8 24.00 1200.03 304 502 2.640 10000.000 0.000 -0.890
9 27.00 1200.03 286 475 2.640 10000.000 0.000 -0.890
10 30.00 1200.03 300 431 2.640 10000.000 0.000 -0.890
11 33.00 1200.03 284 515 2.640 10000.000 0.000 -0.890
12 36.00 1200.03 256 548 2.640 10000.000 0.000 -0.890
13 39.00 1200.03 244 633 2.640 10000.000 0.000 -0.890
14 42.00 1200.03 219 673 2.640 10000.000 0.000 -0.890
15 45.00 1200.03 200 749 2.640 10000.000 0.000 -0.890
16 48.00 1200.03 205 834 2.640 10000.000 0.000 -0.890
17 51.00 1200.03 210 943 2.640 10000.000 0.000 -0.890
18 54.00 1200.03 196 910 2.640 10000.000 0.000 -0.890
19 57.00 1200.03 206 901 2.640 10000.000 0.000 -0.890
20 60.00 1200.03 222 971 2.640 10000.000 0.000 -0.890
21 63.00 1200.03 235 961 2.640 10000.000 0.000 -0.890
22 66.00 1200.03 226 1015 2.640 10000.000 0.000 -0.890
23 69.00 1200.03 249 986 2.640 10000.000 0.000 -0.890
24 72.00 1200.03 252 948 2.640 10000.000 0.000 -0.890
25 75.00 1200.03 304 929 2.640 10000.000 0.000 -0.890
26 78.00 1200.03 315 928 2.640 10000.000 0.000 -0.890
27 81.00 1200.03 311 943 2.640 10000.000 0.000 -0.890
28 84.00 1200.03 334 855 2.640 10000.000 0.000 -0.890
29 87.00 1200.03 304 851 2.640 10000.000 0.000 -0.890
30 90.00 1200.03 353 691 2.640 10000.000 0.000 -0.890
31 93.00 1200.03 347 646 2.640 10000.000 0.000 -0.890
32 96.00 1200.03 342 579 2.640 10000.000 0.000 -0.890
33 99.00 1200.03 335 545 2.640 10000.000 0.000 -0.890
34 102.00 1200.03 360 441 2.640 10000.000 0.000 -0.890
35 105.00 1200.03 340 445 2.640 10000.000 0.000 -0.890
36 108.00 1200.03 396 362 2.640 10000.000 0.000 -0.890
37 111.00 1200.03 322 332 2.640 10000.000 0.000 -0.890
38 114.00 1200.03 352 342 2.640 10000.000 0.000 -0.890
39 117.00 1200.03 319 322 2.640 10000.000 0.000 -0.890
40 120.00 1200.03 322 359 2.640 10000.000 0.000 -0.890
41 123.00 1200.03 299 346 2.640 10000.000 0.000 -0.890
42 126.00 1200.03 298 421 2.640 10000.000 0.000 -0.890
43 129.00 1200.03 319 410 2.640 10000.000 0.000 -0.890
44 132.00 1200.03 308 495 2.640 10000.000 0.000 -0.890
45 135.00 1200.03 277 583 2.640 10000.000 0.000 -0.890
46 138.00 1200.03 211 686 2.640 10000.000 0.000 -0.890
47 141.00 1200.03 223 696 2.640 10000.000 0.000 -0.890
48 144.00 1200.03 221 852 2.640 10000.000 0.000 -0.890
49 147.00 1200.03 215 820 2.640 10000.000 0.000 -0.890
50 150.00 1200.03 203 903 2.640 10000.000 0.000 -0.890
51 153.00 1200.03 186 942 2.640 10000.000 0.000 -0.890
52 156.00 1200.03 189 945 2.640 10000.000 0.000 -0.890
53 159.00 1200.03 229 1001 2.640 10000.000 0.000 -0.890
54 162.00 1200.03 210 999 2.640 10000.000 0.000 -0.890
55 165.00 1200.03 248 1002 2.640 10000.000 0.000 -0.890
56 168.00 1200.03 223 983 2.640 10000.000 0.000 -0.890
57 171.00 1200.03 278 913 2.640 10000.000 0.000 -0.890
58 174.00 1200.03 301 958 2.640 10000.000 0.000 -0.890
59 177.00 1200.03 280 885 2.640 10000.000 0.000 -0.890
60 180.00 1200.03 284 898 2.640 10000.000 0.000 -0.890
61 183.00 1200.03 296 859 2.640 10000.000 0.000 -0.890
62 186.00 1200.03 343 835 2.640 10000.000 0.000 -0.890
63 189.00 1200.03 311 766 2.640 10000.000 0.000 -0.890
64 192.00 1200.03 363 668 2.640 10000.000 0.000 -0.890
65 195.00 1200.03 323 552 2.640 10000.000 0.000 -0.890
66 198.00 1200.03 361 551 2.640 10000.000 0.000 -0.890
67 201.00 1200.03 308 496 2.640 10000.000 0.000 -0.890
68 204.00 1200.03 341 444 2.640 10000.000 0.000 -0.890
69 207.00 1200.03 388 370 2.640 10000.000 0.000 -0.890
70 210.00 1200.03 361 357 2.640 10000.000 0.000 -0.890
71 213.00 1200.03 333 350 2.640 10000.000 0.000 -0.890
72 216.00 1200.03 358 333 2.640 10000.000 0.000 -0.890
73 219.00 1200.03 314 347 2.640 10000.000 0.000 -0.890
74 222.00 1200.03 341 368 2.640 10000.000 0.000 -0.890
75 225.00 1200.03 316 400 2.640 10000.000 0.000 -0.890
76 228.00 1200.03 308 444 2.640 10000.000 0.000 -0.890
77 231.00 1200.03 259 464 2.640 10000.000 0.000 -0.890
78 234.00 1200.03 264 553 2.640 10000.000 0.000 -0.890
79 237.00 1200.03 242 615 2.640 10000.000 0.000 -0.890
80 240.00 1200.03 255 678 2.640 10000.000 0.000 -0.890
81 243.00 1200.03 258 784 2.640 10000.000 0.000 -0.890
82 246.00 1200.03 234 816 2.640 10000.000 0.000 -0.890
83 249.00 1200.03 226 861 2.640 10000.000 0.000 -0.890
84 252.00 1200.03 232 976 2.640 10000.000 0.000 -0.890
85 255.00 1200.03 253 916 2.640 10000.000 0.000 -0.890
86 258.00 1200.03 310 957 2.640 10000.000 0.000 -0.890
87 261.00 1200.03 302 1002 2.640 10000.000 0.000 -0.890
88 264.00 1200.03 260 952 2.640 10000.000 0.000 -0.890
89 267.00 1200.03 283 953 2.640 10000.000 0.000 -0.890
90 270.00 1200.03 318 1025 2.640 10000.000 0.000 -0.890
91 273.00 1200.03 274 960 2.640 10000.000 0.000 -0.890
92 276.00 1200.03 307 936 2.640 10000.000 0.000 -0.890
93 279.00 1200.03 284 954 2.640 10000.000 0.000 -0.890
94 282.00 1200.03 233 894 2.640 10000.000 0.000 -0.890
95 285.00 1200.03 238 798 2.640 10000.000 0.000 -0.890
96 288.00 1200.03 275 792 2.640 10000.000 0.000 -0.890
97 291.00 1200.03 260 720 2.640 10000.000 0.000 -0.890
98 294.00 1200.03 230 610 2.640 10000.000 0.000 -0.890
99 297.00 1200.03 253 583 2.640 10000.000 0.000 -0.890
100 300.00 1200.03 247 529 2.640 10000.000 0.000 -0.890
101 303.00 1200.03 261 454 2.640 10000.000 0.000 -0.890
102 306.00 1200.03 294 383 2.640 10000.000 0.000 -0.890
103 309.00 1200.03 307 366 2.640 10000.000 0.000 -0.890
104 312.00 1200.03 293 365 2.640 10000.000 0.000 -0.890
105 315.00 1200.03 308 350 2.640 10000.000 0.000 -0.890
106 318.00 1200.03 311 327 2.640 10000.000 0.000 -0.890
107 321.00 1200.03 341 331 2.640 10000.000 0.000 -0.890
108 324.00 1200.03 339 382 2.640 10000.000 0.000 -0.890
109 327.00 1200.03 345 395 2.640 10000.000 0.000 -0.890
110 330.00 1200.03 354 451 2.640 10000.000 0.000 -0.890
111 333.00 1200.03 347 546 2.640 10000.000 0.000 -0.890
112 336.00 1200.03 373 562 2.640 10000.000 0.000 -0.890
113 339.00 1200.03 322 687 2.640 10000.000 0.000 -0.890
114 342.00 1200.03 330 768 2.640 10000.000 0.000 -0.890
115 345.00 1200.03 342 766 2.640 10000.000 0.000 -0.890
116 348.00 1200.03 362 835 2.640 10000.000 0.000 -0.890
117 351.00 1200.03 333 905 2.640 10000.000 0.000 -0.890
118 354.00 1200.03 353 1057 2.640 10000.000 0.000 -0.890
119 357.00 1200.03 318 952 2.640 10000.000 0.000 -0.890
120 360.00 1200.03 323 959 2.640 10000.000 0.000 -0.890
121 363.00 1200.03 295 962 2.640 10000.000 0.000 -0.890
122 366.00 1200.03 244 937 2.640 10000.000 0.000 -0.890
123 369.00 1200.03 259 1020 2.640 10000.000 0.000 -0.890
124 372.00 1200.03 264 994 2.640 10000.000 0.000 -0.890
125 375.00 1200.03 231 972 2.640 10000.000 0.000 -0.890
126 378.00 1200.03 249 907 2.640 10000.000 0.000 -0.890
127 381.00 1200.03 206 903 2.640 10000.000 0.000 -0.890
128 384.00 1200.03 198 807 2.640 10000.000 0.000 -0.890
129 387.00 1200.03 180 836 2.640 10000.000 0.000 -0.890
130 390.00 1200.03 192 753 2.640 10000.000 0.000 -0.890
131 393.00 1200.03 221 663 2.640 10000.000 0.000 -0.890
132 396.00 1200.03 234 633 2.640 10000.000 0.000 -0.890
133 399.00 1200.03 246 540 2.640 10000.000 0.000 -0.890
134 402.00 1200.03 236 453 2.640 10000.000 0.000 -0.890
135 405.00 1200.03 265 429 2.640 10000.000 0.000 -0.890
136 408.00 1200.03 275 402 2.640 10000.000 0.000 -0.890
137 411.00 1200.03 299 402 2.640 10000.000 0.000 -0.890
138 414.00 1200.03 342 468 2.640 10000.000 0.000 -0.890
139 417.00 1200.03 324 530 2.640 10000.000 0.000 -0.890
140 420.00 1200.03 333 584 2.640 10000.000 0.000 -0.890
141 423.00 1200.03 354 598 2.640 10000.000 0.000 -0.890
