# BinNR microsec tot-time (s)  O-Beam AUX Ampl(V) f(Hz) phase(deg) chi(pos)
0 0.00 1200.00 155 435 1.100 10000.000 0.000 -0.516
1 3.00 1200.00 348 818 1.100 10000.000 0.000 -0.516
2 6.00 1200.00 356 876 1.100 10000.000 0.000 -0.516
3 9.00 1200.00 355 830 1.100 10000.000 0.000 -0.516
4 12.00 1200.00 359 913 1.100 10000.000 0.000 -0.516
5 15.00 1200.00 384 928 1.100 10000.000 0.000 -0.516
6 18.00 1200.00 349 930 1.100 10000.000 0.000 -0.516
7 21.00 1200.00 326 898 1.100 10000.000 0.000 -0.516
8 24.00 1200.00 320 922 1.100 10000.000 0.000 -0.516
9 27.00 1200.00 346 1003 1.100 10000.000 0.000 -0.516
10 30.00 1200.00 340 1003 1.100 10000.000 0.000 -0.516
11 33.00 1200.00 331 966 1.100 10000.000 0.000 -0.516
12 36.00 1200.00 333 942 1.100 10000.000 0.000 -0.516
13 39.00 1200.00 347 949 1.100 10000.000 0.000 -0.516
14 42.00 1200.00 340 990 1.100 10000.000 0.000 -0.516
15 45.00 1200.00 325 923 1.100 10000.000 0.000 -0.516
16 48.00 1200.00 327 919 1.100 10000.000 0.000 -0.516
17 51.00 1200.00 379 843 1.100 10000.000 0.000 -0.516
18 54.00 1200.00 317 916 1.100 10000.000 0.000 -0.516
19 57.00 1200.00 339 853 1.100 10000.000 0.000 -0.516
20 60.00 1200.00 352 878 1.100 10000.000 0.000 -0.516
21 63.00 1200.00 364 882 1.100 10000.000 0.000 -0.516
22 66.00 1200.00 351 947 1.100 10000.000 0.000 -0.516
23 69.00 1200.00 364 882 1.100 10000.000 0.000 -0.516
24 72.00 1200.00 319 989 1.100 10000.000 0.000 -0.516
25 75.00 1200.00 321 919 1.100 10000.000 0.000 -0.516
26 78.00 1200.00 331 976 1.100 10000.000 0.000 -0.516
27 81.00 1200.00 313 932 1.100 10000.000 0.000 -0.516
28 84.00 1200.00 324 1041 1.100 10000.000 0.000 -0.516
29 87.00 1200.00 337 988 1.100 10000.000 0.000 -0.516
30 90.00 1200.00 341 1041 1.100 10000.000 0.000 -0.516
31 93.00 1200.00 343 987 1.100 10000.000 0.000 -0.516
32 96.00 1200.00 343 1005 1.100 10000.000 0.000 -0.516
33 99.00 1200.00 343 989 1.100 10000.000 0.000 -0.516
34 102.00 1200.00 362 1024 1.100 10000.000 0.000 -0.516
35 105.00 1200.00 331 954 1.100 10000.000 0.000 -0.516
36 108.00 1200.00 360 1003 1.100 10000.000 0.000 -0.516
37 111.00 1200.00 339 940 1.100 10000.000 0.000 -0.516
38 114.00 1200.00 329 964 1.100 10000.000 0.000 -0.516
39 117.00 1200.00 333 984 1.100 10000.000 0.000 -0.516
40 120.00 1200.00 357 988 1.100 10000.000 0.000 -0.516
41 123.00 1200.00 343 932 1.100 10000.000 0.000 -0.516
42 126.00 1200.00 349 943 1.100 10000.000 0.000 -0.516
43 129.00 1200.00 320 929 1.100 10000.000 0.000 -0.516
44 132.00 1200.00 330 898 1.100 10000.000 0.000 -0.516
45 135.00 1200.00 345 892 1.100 10000.000 0.000 -0.516
46 138.00 1200.00 320 821 1.100 10000.000 0.000 -0.516
47 141.00 1200.00 345 879 1.100 10000.000 0.000 -0.516
48 144.00 1200.00 326 843 1.100 10000.000 0.000 -0.516
49 147.00 1200.00 361 784 1.100 10000.000 0.000 -0.516
50 150.00 1200.00 323 851 1.100 10000.000 0.000 -0.516
51 153.00 1200.00 350 803 1.100 10000.000 0.000 -0.516
52 156.00 1200.00 366 810 1.100 10000.000 0.000 -0.516
53 159.00 1200.00 329 847 1.100 10000.000 0.000 -0.516
54 162.00 1200.00 361 909 1.100 10000.000 0.000 -0.516
55 165.00 1200.00 349 877 1.100 10000.000 0.000 -0.516
56 168.00 1200.00 366 901 1.100 10000.000 0.000 -0.516
57 171.00 1200.00 333 985 1.100 10000.000 0.000 -0.516
58 174.00 1200.00 336 1055 1.100 10000.000 0.000 -0.516
59 177.00 1200.00 343 964 1.100 10000.000 0.000 -0.516
60 180.00 1200.00 347 984 1.100 10000.000 0.000 -0.516
61 183.00 1200.00 328 941 1.100 10000.000 0.000 -0.516
62 186.00 1200.00 334 994 1.100 10000.000 0.000 -0.516
63 189.00 1200.00 292 981 1.100 10000.000 0.000 -0.516
64 192.00 1200.00 373 1012 1.100 10000.000 0.000 -0.516
65 195.00 1200.00 342 964 1.100 10000.000 0.000 -0.516
66 198.00 1200.00 330 980 1.100 10000.000 0.000 -0.516
67 201.00 1200.00 344 945 1.100 10000.000 0.000 -0.516
68 204.00 1200.00 327 972 1.100 10000.000 0.000 -0.516
69 207.00 1200.00 347 1001 1.100 10000.000 0.000 -0.516
70 210.00 1200.00 355 979 1.100 10000.000 0.000 -0.516
71 213.00 1200.00 375 967 1.100 10000.000 0.000 -0.516
72 216.00 1200.00 322 985 1.100 10000.000 0.000 -0.516
73 219.00 1200.00 335 924 1.100 10000.000 0.000 -0.516
74 222.00 1200.00 348 930 1.100 10000.000 0.000 -0.516
75 225.00 1200.00 343 1000 1.100 10000.000 0.000 -0.516
76 228.00 1200.00 356 903 1.100 10000.000 0.000 -0.516
77 231.00 1200.00 341 892 1.100 10000.000 0.000 -0.516
78 234.00 1200.00 318 875 1.100 10000.000 0.000 -0.516
79 237.00 1200.00 307 849 1.100 10000.000 0.000 -0.516
80 240.00 1200.00 343 795 1.100 10000.000 0.000 -0.516
81 243.00 1200.00 335 800 1.100 10000.000 0.000 -0.516
82 246.00 1200.00 348 810 1.100 10000.000 0.000 -0.516
83 249.00 1200.00 306 816 1.100 10000.000 0.000 -0.516
84 252.00 1200.00 317 864 1.100 10000.000 0.000 -0.516
85 255.00 1200.00 364 825 1.100 10000.000 0.000 -0.516
86 258.00 1200.00 326 830 1.100 10000.000 0.000 -0.516
87 261.00 1200.00 348 908 1.100 10000.000 0.000 -0.516
88 264.00 1200.00 333 936 1.100 10000.000 0.000 -0.516
89 267.00 1200.00 313 913 1.100 10000.000 0.000 -0.516
90 270.00 1200.00 322 920 1.100 10000.000 0.000 -0.516
91 273.00 1200.00 338 970 1.100 10000.000 0.000 -0.516
92 276.00 1200.00 355 975 1.100 10000.000 0.000 -0.516
93 279.00 1200.00 333 996 1.100 10000.000 0.000 -0.516
94 282.00 1200.00 339 903 1.100 10000.000 0.000 -0.516
95 285.00 1200.00 373 978 1.100 10000.000 0.000 -0.516
96 288.00 1200.00 335 969 1.100 10000.000 0.000 -0.516
97 291.00 1200.00 302 1053 1.100 10000.000 0.000 -0.516
98 294.00 1200.00 358 959 1.100 10000.000 0.000 -0.516
99 297.00 1200.00 339 1020 1.100 10000.000 0.000 -0.516
100 300.00 1200.00 333 979 1.100 10000.000 0.000 -0.516
101 303.00 1200.00 341 948 1.100 10000.000 0.000 -0.516
102 306.00 1200.00 350 999 1.100 10000.000 0.000 -0.516
103 309.00 1200.00 351 950 1.100 10000.000 0.000 -0.516
104 312.00 1200.00 380 958 1.100 10000.000 0.000 -0.516
105 315.00 1200.00 333 988 1.100 10000.000 0.000 -0.516
106 318.00 1200.00 311 957 1.100 10000.000 0.000 -0.516
107 321.00 1200.00 323 922 1.100 10000.000 0.000 -0.516
108 324.00 1200.00 366 952 1.100 10000.000 0.000 -0.516
109 327.00 1200.00 324 897 1.100 10000.000 0.000 -0.516
110 330.00 1200.00 344 873 1.100 10000.000 0.000 -0.516
111 333.00 1200.00 333 895 1.100 10000.000 0.000 -0.516
112 336.00 1200.00 344 874 1.100 10000.000 0.000 -0.516
113 339.00 1200.00 301 863 1.100 10000.000 0.000 -0.516
114 342.00 1200.00 387 805 1.100 10000.000 0.000 -0.516
115 345.00 1200.00 344 824 1.100 10000.000 0.000 -0.516
116 348.00 1200.00 348 815 1.100 10000.000 0.000 -0.516
117 351.00 1200.00 328 814 1.100 10000.000 0.000 -0.516
118 354.00 1200.00 342 783 1.100 10000.000 0.000 -0.516
119 357.00 1200.00 330 848 1.100 10000.000 0.000 -0.516
120 360.00 1200.00 328 858 1.100 10000.000 0.000 -0.516
121 363.00 1200.00 326 946 1.100 10000.000 0.000 -0.516
122 366.00 1200.00 356 940 1.100 10000.000 0.000 -0.516
123 369.00 1200.00 353 941 1.100 10000.000 0.000 -0.516
124 372.00 1200.00 339 939 1.100 10000.000 0.000 -0.516
125 375.00 1200.00 340 937 1.100 10000.000 0.000 -0.516
126 378.00 1200.00 349 974 1.100 10000.000 0.000 -0.516
127 381.00 1200.00 360 998 1.100 10000.000 0.000 -0.516
128 384.00 1200.00 356 958 1.100 10000.000 0.000 -0.516
129 387.00 1200.00 361 1065 1.100 10000.000 0.000 -0.516
130 390.00 1200.00 338 997 1.100 10000.000 0.000 -0.516
131 393.00 1200.00 360 963 1.100 10000.000 0.000 -0.516
132 396.00 1200.00 369 987 1.100 10000.000 0.000 -0.516
133 399.00 1200.00 389 957 1.100 10000.000 0.000 -0.516
134 402.00 1200.00 348 929 1.100 10000.000 0.000 -0.516
135 405.00 1200.00 332 984 1.100 10000.000 0.000 -0.516
136 408.00 1200.00 315 1015 1.100 10000.000 0.000 -0.516
137 411.00 1200.00 324 946 1.100 10000.000 0.000 -0.516
138 414.00 1200.00 335 1018 1.100 10000.000 0.000 -0.516
139 417.00 1200.00 326 926 1.100 10000.000 0.000 -0.516
140 420.00 1200.00 350 931 1.100 10000.000 0.000 -0.516
141 423.00 1200.00 323 955 1.100 10000.000 0.000 -0.516
142 426.00 1200.00 329 931 1.100 10000.000 0.000 -0.516
143 429.00 1200.00 344 903 1.100 10000.000 0.000 -0.516
144 432.00 1200.00 328 909 1.100 10000.000 0.000 -0.516
