# BinNR microsec tot-time (s)  O-Beam AUX Ampl(V) f(Hz) phase(deg) chi(pos)
0 0.00 1200.01 148 422 1.100 10000.000 0.000 1.165
1 3.00 1200.01 305 900 1.100 10000.000 0.000 1.165
2 6.00 1200.01 263 933 1.100 10000.000 0.000 1.165
3 9.00 1200.01 261 888 1.100 10000.000 0.000 1.165
4 12.00 1200.01 203 896 1.100 10000.000 0.000 1.165
5 15.00 1200.01 252 892 1.100 10000.000 0.000 1.165
6 18.00 1200.01 234 914 1.100 10000.000 0.000 1.165
7 21.00 1200.01 206 819 1.100 10000.000 0.000 1.165
8 24.00 1200.01 210 786 1.100 10000.000 0.000 1.165
9 27.00 1200.01 185 792 1.100 10000.000 0.000 1.165
10 30.00 1200.01 191 790 1.100 10000.000 0.000 1.165
11 33.00 1200.01 212 809 1.100 10000.000 0.000 1.165
12 36.00 1200.01 177 847 1.100 10000.000 0.000 1.165
13 39.00 1200.01 179 771 1.100 10000.000 0.000 1.165
14 42.00 1200.01 198 835 1.100 10000.000 0.000 1.165
15 45.00 1200.01 182 844 1.100 10000.000 0.000 1.165
16 48.00 1200.01 202 856 1.100 10000.000 0.000 1.165
17 51.00 1200.01 202 801 1.100 10000.000 0.000 1.165
18 54.00 1200.01 215 967 1.100 10000.000 0.000 1.165
19 57.00 1200.01 239 851 1.100 10000.000 0.000 1.165
20 60.00 1200.01 230 908 1.100 10000.000 0.000 1.165
21 63.00 1200.01 261 821 1.100 10000.000 0.000 1.165
22 66.00 1200.01 300 790 1.100 10000.000 0.000 1.165
23 69.00 1200.01 263 840 1.100 10000.000 0.000 1.165
24 72.00 1200.01 292 796 1.100 10000.000 0.000 1.165
25 75.00 1200.01 311 740 1.100 10000.000 0.000 1.165
26 78.00 1200.01 298 797 1.100 10000.000 0.000 1.165
27 81.00 1200.01 269 699 1.100 10000.000 0.000 1.165
28 84.00 1200.01 303 717 1.100 10000.000 0.000 1.165
29 87.00 1200.01 276 633 1.100 10000.000 0.000 1.165
30 90.00 1200.01 256 703 1.100 10000.000 0.000 1.165
31 93.00 1200.01 267 616 1.100 10000.000 0.000 1.165
32 96.00 1200.01 308 607 1.100 10000.000 0.000 1.165
33 99.00 1200.01 282 587 1.100 10000.000 0.000 1.165
34 102.00 1200.01 260 630 1.100 10000.000 0.000 1.165
35 105.00 1200.01 218 653 1.100 10000.000 0.000 1.165
36 108.00 1200.01 253 634 1.100 10000.000 0.000 1.165
37 111.00 1200.01 221 665 1.100 10000.000 0.000 1.165
38 114.00 1200.01 248 696 1.100 10000.000 0.000 1.165
39 117.00 1200.01 238 738 1.100 10000.000 0.000 1.165
40 120.00 1200.01 187 782 1.100 10000.000 0.000 1.165
41 123.00 1200.01 185 814 1.100 10000.000 0.000 1.165
42 126.00 1200.01 187 869 1.100 10000.000 0.000 1.165
43 129.00 1200.01 184 841 1.100 10000.000 0.000 1.165
44 132.00 1200.01 183 860 1.100 10000.000 0.000 1.165
45 135.00 1200.01 177 926 1.100 10000.000 0.000 1.165
46 138.00 1200.01 191 928 1.100 10000.000 0.000 1.165
47 141.00 1200.01 205 902 1.100 10000.000 0.000 1.165
48 144.00 1200.01 183 909 1.100 10000.000 0.000 1.165
49 147.00 1200.01 199 944 1.100 10000.000 0.000 1.165
50 150.00 1200.01 202 896 1.100 10000.000 0.000 1.165
51 153.00 1200.01 236 927 1.100 10000.000 0.000 1.165
52 156.00 1200.01 233 877 1.100 10000.000 0.000 1.165
53 159.00 1200.01 210 953 1.100 10000.000 0.000 1.165
54 162.00 1200.01 254 897 1.100 10000.000 0.000 1.165
55 165.00 1200.01 237 858 1.100 10000.000 0.000 1.165
56 168.00 1200.01 281 810 1.100 10000.000 0.000 1.165
57 171.00 1200.01 285 760 1.100 10000.000 0.000 1.165
58 174.00 1200.01 304 775 1.100 10000.000 0.000 1.165
59 177.00 1200.01 282 687 1.100 10000.000 0.000 1.165
60 180.00 1200.01 289 749 1.100 10000.000 0.000 1.165
61 183.00 1200.01 316 665 1.100 10000.000 0.000 1.165
62 186.00 1200.01 345 679 1.100 10000.000 0.000 1.165
63 189.00 1200.01 311 608 1.100 10000.000 0.000 1.165
64 192.00 1200.01 322 640 1.100 10000.000 0.000 1.165
65 195.00 1200.01 303 562 1.100 10000.000 0.000 1.165
66 198.00 1200.01 266 564 1.100 10000.000 0.000 1.165
67 201.00 1200.01 265 652 1.100 10000.000 0.000 1.165
68 204.00 1200.01 265 626 1.100 10000.000 0.000 1.165
69 207.00 1200.01 250 630 1.100 10000.000 0.000 1.165
70 210.00 1200.01 243 616 1.100 10000.000 0.000 1.165
71 213.00 1200.01 275 718 1.100 10000.000 0.000 1.165
72 216.00 1200.01 251 724 1.100 10000.000 0.000 1.165
73 219.00 1200.01 194 696 1.100 10000.000 0.000 1.165
74 222.00 1200.01 192 790 1.100 10000.000 0.000 1.165
75 225.00 1200.01 175 814 1.100 10000.000 0.000 1.165
76 228.00 1200.01 203 831 1.100 10000.000 0.000 1.165
77 231.00 1200.01 204 871 1.100 10000.000 0.000 1.165
78 234.00 1200.01 179 913 1.100 10000.000 0.000 1.165
79 237.00 1200.01 168 896 1.100 10000.000 0.000 1.165
80 240.00 1200.01 180 897 1.100 10000.000 0.000 1.165
81 243.00 1200.01 197 938 1.100 10000.000 0.000 1.165
82 246.00 1200.01 216 932 1.100 10000.000 0.000 1.165
83 249.00 1200.01 195 935 1.100 10000.000 0.000 1.165
84 252.00 1200.01 252 895 1.100 10000.000 0.000 1.165
85 255.00 1200.01 208 929 1.100 10000.000 0.000 1.165
86 258.00 1200.01 215 942 1.100 10000.000 0.000 1.165
87 261.00 1200.01 242 880 1.100 10000.000 0.000 1.165
88 264.00 1200.01 258 925 1.100 10000.000 0.000 1.165
89 267.00 1200.01 271 866 1.100 10000.000 0.000 1.165
90 270.00 1200.01 273 847 1.100 10000.000 0.000 1.165
91 273.00 1200.01 291 793 1.100 10000.000 0.000 1.165
92 276.00 1200.01 265 786 1.100 10000.000 0.000 1.165
93 279.00 1200.01 291 669 1.100 10000.000 0.000 1.165
94 282.00 1200.01 274 691 1.100 10000.000 0.000 1.165
95 285.00 1200.01 226 666 1.100 10000.000 0.000 1.165
96 288.00 1200.01 287 617 1.100 10000.000 0.000 1.165
97 291.00 1200.01 265 652 1.100 10000.000 0.000 1.165
98 294.00 1200.01 276 574 1.100 10000.000 0.000 1.165
99 297.00 1200.01 236 560 1.100 10000.000 0.000 1.165
100 300.00 1200.01 281 605 1.100 10000.000 0.000 1.165
101 303.00 1200.01 247 599 1.100 10000.000 0.000 1.165
102 306.00 1200.01 243 621 1.100 10000.000 0.000 1.165
103 309.00 1200.01 248 623 1.100 10000.000 0.000 1.165
104 312.00 1200.01 256 698 1.100 10000.000 0.000 1.165
105 315.00 1200.01 254 684 1.100 10000.000 0.000 1.165
106 318.00 1200.01 281 735 1.100 10000.000 0.000 1.165
107 321.00 1200.01 265 739 1.100 10000.000 0.000 1.165
108 324.00 1200.01 286 845 1.100 10000.000 0.000 1.165
109 327.00 1200.01 287 836 1.100 10000.000 0.000 1.165
110 330.00 1200.01 246 880 1.100 10000.000 0.000 1.165
111 333.00 1200.01 270 893 1.100 10000.000 0.000 1.165
112 336.00 1200.01 241 884 1.100 10000.000 0.000 1.165
113 339.00 1200.01 251 875 1.100 10000.000 0.000 1.165
114 342.00 1200.01 272 930 1.100 10000.000 0.000 1.165
115 345.00 1200.01 241 884 1.100 10000.000 0.000 1.165
116 348.00 1200.01 247 968 1.100 10000.000 0.000 1.165
117 351.00 1200.01 209 925 1.100 10000.000 0.000 1.165
118 354.00 1200.01 227 892 1.100 10000.000 0.000 1.165
119 357.00 1200.01 175 896 1.100 10000.000 0.000 1.165
120 360.00 1200.01 200 904 1.100 10000.000 0.000 1.165
121 363.00 1200.01 214 784 1.100 10000.000 0.000 1.165
122 366.00 1200.01 191 861 1.100 10000.000 0.000 1.165
123 369.00 1200.01 178 853 1.100 10000.000 0.000 1.165
124 372.00 1200.01 184 806 1.100 10000.000 0.000 1.165
125 375.00 1200.01 189 781 1.100 10000.000 0.000 1.165
126 378.00 1200.01 166 734 1.100 10000.000 0.000 1.165
127 381.00 1200.01 208 721 1.100 10000.000 0.000 1.165
128 384.00 1200.01 207 675 1.100 10000.000 0.000 1.165
129 387.00 1200.01 195 634 1.100 10000.000 0.000 1.165
130 390.00 1200.01 230 607 1.100 10000.000 0.000 1.165
131 393.00 1200.01 243 597 1.100 10000.000 0.000 1.165
132 396.00 1200.01 257 596 1.100 10000.000 0.000 1.165
133 399.00 1200.01 244 611 1.100 10000.000 0.000 1.165
134 402.00 1200.01 305 620 1.100 10000.000 0.000 1.165
135 405.00 1200.01 296 658 1.100 10000.000 0.000 1.165
136 408.00 1200.01 290 608 1.100 10000.000 0.000 1.165
137 411.00 1200.01 267 665 1.100 10000.000 0.000 1.165
138 414.00 1200.01 346 676 1.100 10000.000 0.000 1.165
139 417.00 1200.01 304 744 1.100 10000.000 0.000 1.165
140 420.00 1200.01 304 792 1.100 10000.000 0.000 1.165
141 423.00 1200.01 314 801 1.100 10000.000 0.000 1.165
142 426.00 1200.01 293 860 1.100 10000.000 0.000 1.165
143 429.00 1200.01 268 811 1.100 10000.000 0.000 1.165
144 432.00 1200.01 284 893 1.100 10000.000 0.000 1.165
