# BinNR microsec tot-time (s)  O-Beam AUX Ampl(V) f(Hz) phase(deg) chi(pos)
0 0.00 1200.00 137 233 1.100 10000.000 0.000 -0.165
1 3.00 1200.00 255 452 1.100 10000.000 0.000 -0.165
2 6.00 1200.00 291 428 1.100 10000.000 0.000 -0.165
3 9.00 1200.00 271 467 1.100 10000.000 0.000 -0.165
4 12.00 1200.00 263 458 1.100 10000.000 0.000 -0.165
5 15.00 1200.00 280 497 1.100 10000.000 0.000 -0.165
6 18.00 1200.00 304 552 1.100 10000.000 0.000 -0.165
7 21.00 1200.00 315 571 1.100 10000.000 0.000 -0.165
8 24.00 1200.00 299 605 1.100 10000.000 0.000 -0.165
9 27.00 1200.00 305 623 1.100 10000.000 0.000 -0.165
10 30.00 1200.00 292 676 1.100 10000.000 0.000 -0.165
11 33.00 1200.00 337 654 1.100 10000.000 0.000 -0.165
12 36.00 1200.00 314 610 1.100 10000.000 0.000 -0.165
13 39.00 1200.00 317 613 1.100 10000.000 0.000 -0.165
14 42.00 1200.00 316 634 1.100 10000.000 0.000 -0.165
15 45.00 1200.00 313 547 1.100 10000.000 0.000 -0.165
16 48.00 1200.00 310 540 1.100 10000.000 0.000 -0.165
17 51.00 1200.00 278 500 1.100 10000.000 0.000 -0.165
18 54.00 1200.00 269 485 1.100 10000.000 0.000 -0.165
19 57.00 1200.00 298 476 1.100 10000.000 0.000 -0.165
20 60.00 1200.00 284 490 1.100 10000.000 0.000 -0.165
21 63.00 1200.00 287 520 1.100 10000.000 0.000 -0.165
22 66.00 1200.00 275 536 1.100 10000.000 0.000 -0.165
23 69.00 1200.00 252 556 1.100 10000.000 0.000 -0.165
24 72.00 1200.00 257 566 1.100 10000.000 0.000 -0.165
25 75.00 1200.00 220 634 1.100 10000.000 0.000 -0.165
26 78.00 1200.00 227 729 1.100 10000.000 0.000 -0.165
27 81.00 1200.00 236 719 1.100 10000.000 0.000 -0.165
28 84.00 1200.00 230 770 1.100 10000.000 0.000 -0.165
29 87.00 1200.00 216 747 1.100 10000.000 0.000 -0.165
30 90.00 1200.00 219 809 1.100 10000.000 0.000 -0.165
31 93.00 1200.00 221 815 1.100 10000.000 0.000 -0.165
32 96.00 1200.00 222 842 1.100 10000.000 0.000 -0.165
33 99.00 1200.00 251 783 1.100 10000.000 0.000 -0.165
34 102.00 1200.00 255 803 1.100 10000.000 0.000 -0.165
35 105.00 1200.00 264 778 1.100 10000.000 0.000 -0.165
36 108.00 1200.00 278 802 1.100 10000.000 0.000 -0.165
37 111.00 1200.00 261 778 1.100 10000.000 0.000 -0.165
38 114.00 1200.00 272 693 1.100 10000.000 0.000 -0.165
39 117.00 1200.00 271 697 1.100 10000.000 0.000 -0.165
40 120.00 1200.00 286 679 1.100 10000.000 0.000 -0.165
41 123.00 1200.00 286 623 1.100 10000.000 0.000 -0.165
42 126.00 1200.00 337 597 1.100 10000.000 0.000 -0.165
43 129.00 1200.00 295 553 1.100 10000.000 0.000 -0.165
44 132.00 1200.00 314 465 1.100 10000.000 0.000 -0.165
45 135.00 1200.00 334 458 1.100 10000.000 0.000 -0.165
46 138.00 1200.00 340 443 1.100 10000.000 0.000 -0.165
47 141.00 1200.00 277 404 1.100 10000.000 0.000 -0.165
48 144.00 1200.00 313 465 1.100 10000.000 0.000 -0.165
49 147.00 1200.00 341 391 1.100 10000.000 0.000 -0.165
50 150.00 1200.00 299 408 1.100 10000.000 0.000 -0.165
51 153.00 1200.00 291 406 1.100 10000.000 0.000 -0.165
52 156.00 1200.00 272 429 1.100 10000.000 0.000 -0.165
53 159.00 1200.00 248 405 1.100 10000.000 0.000 -0.165
54 162.00 1200.00 245 538 1.100 10000.000 0.000 -0.165
55 165.00 1200.00 250 535 1.100 10000.000 0.000 -0.165
56 168.00 1200.00 252 508 1.100 10000.000 0.000 -0.165
57 171.00 1200.00 250 607 1.100 10000.000 0.000 -0.165
58 174.00 1200.00 229 665 1.100 10000.000 0.000 -0.165
59 177.00 1200.00 233 677 1.100 10000.000 0.000 -0.165
60 180.00 1200.00 226 744 1.100 10000.000 0.000 -0.165
61 183.00 1200.00 213 711 1.100 10000.000 0.000 -0.165
62 186.00 1200.00 201 791 1.100 10000.000 0.000 -0.165
63 189.00 1200.00 191 796 1.100 10000.000 0.000 -0.165
64 192.00 1200.00 254 885 1.100 10000.000 0.000 -0.165
65 195.00 1200.00 230 805 1.100 10000.000 0.000 -0.165
66 198.00 1200.00 188 750 1.100 10000.000 0.000 -0.165
67 201.00 1200.00 242 807 1.100 10000.000 0.000 -0.165
68 204.00 1200.00 285 793 1.100 10000.000 0.000 -0.165
69 207.00 1200.00 230 851 1.100 10000.000 0.000 -0.165
70 210.00 1200.00 309 785 1.100 10000.000 0.000 -0.165
71 213.00 1200.00 298 757 1.100 10000.000 0.000 -0.165
72 216.00 1200.00 301 720 1.100 10000.000 0.000 -0.165
73 219.00 1200.00 312 628 1.100 10000.000 0.000 -0.165
74 222.00 1200.00 313 697 1.100 10000.000 0.000 -0.165
75 225.00 1200.00 304 568 1.100 10000.000 0.000 -0.165
76 228.00 1200.00 307 533 1.100 10000.000 0.000 -0.165
77 231.00 1200.00 284 493 1.100 10000.000 0.000 -0.165
78 234.00 1200.00 344 466 1.100 10000.000 0.000 -0.165
79 237.00 1200.00 310 423 1.100 10000.000 0.000 -0.165
80 240.00 1200.00 333 459 1.100 10000.000 0.000 -0.165
81 243.00 1200.00 291 414 1.100 10000.000 0.000 -0.165
82 246.00 1200.00 284 419 1.100 10000.000 0.000 -0.165
83 249.00 1200.00 297 400 1.100 10000.000 0.000 -0.165
84 252.00 1200.00 329 417 1.100 10000.000 0.000 -0.165
85 255.00 1200.00 282 402 1.100 10000.000 0.000 -0.165
86 258.00 1200.00 292 451 1.100 10000.000 0.000 -0.165
87 261.00 1200.00 271 446 1.100 10000.000 0.000 -0.165
88 264.00 1200.00 262 498 1.100 10000.000 0.000 -0.165
89 267.00 1200.00 268 548 1.100 10000.000 0.000 -0.165
90 270.00 1200.00 220 581 1.100 10000.000 0.000 -0.165
91 273.00 1200.00 257 589 1.100 10000.000 0.000 -0.165
92 276.00 1200.00 229 678 1.100 10000.000 0.000 -0.165
93 279.00 1200.00 255 652 1.100 10000.000 0.000 -0.165
94 282.00 1200.00 225 727 1.100 10000.000 0.000 -0.165
95 285.00 1200.00 228 802 1.100 10000.000 0.000 -0.165
96 288.00 1200.00 257 790 1.100 10000.000 0.000 -0.165
97 291.00 1200.00 239 776 1.100 10000.000 0.000 -0.165
98 294.00 1200.00 245 808 1.100 10000.000 0.000 -0.165
99 297.00 1200.00 285 862 1.100 10000.000 0.000 -0.165
100 300.00 1200.00 283 802 1.100 10000.000 0.000 -0.165
101 303.00 1200.00 284 826 1.100 10000.000 0.000 -0.165
102 306.00 1200.00 261 792 1.100 10000.000 0.000 -0.165
103 309.00 1200.00 282 806 1.100 10000.000 0.000 -0.165
104 312.00 1200.00 254 771 1.100 10000.000 0.000 -0.165
105 315.00 1200.00 262 733 1.100 10000.000 0.000 -0.165
106 318.00 1200.00 289 670 1.100 10000.000 0.000 -0.165
107 321.00 1200.00 272 640 1.100 10000.000 0.000 -0.165
108 324.00 1200.00 249 645 1.100 10000.000 0.000 -0.165
109 327.00 1200.00 227 593 1.100 10000.000 0.000 -0.165
110 330.00 1200.00 259 547 1.100 10000.000 0.000 -0.165
111 333.00 1200.00 241 486 1.100 10000.000 0.000 -0.165
112 336.00 1200.00 264 459 1.100 10000.000 0.000 -0.165
113 339.00 1200.00 263 477 1.100 10000.000 0.000 -0.165
114 342.00 1200.00 278 439 1.100 10000.000 0.000 -0.165
115 345.00 1200.00 302 387 1.100 10000.000 0.000 -0.165
116 348.00 1200.00 288 409 1.100 10000.000 0.000 -0.165
117 351.00 1200.00 294 424 1.100 10000.000 0.000 -0.165
118 354.00 1200.00 306 412 1.100 10000.000 0.000 -0.165
119 357.00 1200.00 281 414 1.100 10000.000 0.000 -0.165
120 360.00 1200.00 329 467 1.100 10000.000 0.000 -0.165
121 363.00 1200.00 302 445 1.100 10000.000 0.000 -0.165
122 366.00 1200.00 352 530 1.100 10000.000 0.000 -0.165
123 369.00 1200.00 299 575 1.100 10000.000 0.000 -0.165
124 372.00 1200.00 319 606 1.100 10000.000 0.000 -0.165
125 375.00 1200.00 299 642 1.100 10000.000 0.000 -0.165
126 378.00 1200.00 286 707 1.100 10000.000 0.000 -0.165
127 381.00 1200.00 305 648 1.100 10000.000 0.000 -0.165
128 384.00 1200.00 297 746 1.100 10000.000 0.000 -0.165
129 387.00 1200.00 285 788 1.100 10000.000 0.000 -0.165
130 390.00 1200.00 295 822 1.100 10000.000 0.000 -0.165
131 393.00 1200.00 267 775 1.100 10000.000 0.000 -0.165
132 396.00 1200.00 255 820 1.100 10000.000 0.000 -0.165
133 399.00 1200.00 232 811 1.100 10000.000 0.000 -0.165
134 402.00 1200.00 251 835 1.100 10000.000 0.000 -0.165
135 405.00 1200.00 240 805 1.100 10000.000 0.000 -0.165
136 408.00 1200.00 259 781 1.100 10000.000 0.000 -0.165
137 411.00 1200.00 199 764 1.100 10000.000 0.000 -0.165
138 414.00 1200.00 226 711 1.100 10000.000 0.000 -0.165
139 417.00 1200.00 221 693 1.100 10000.000 0.000 -0.165
140 420.00 1200.00 229 655 1.100 10000.000 0.000 -0.165
141 423.00 1200.00 222 626 1.100 10000.000 0.000 -0.165
142 426.00 1200.00 225 600 1.100 10000.000 0.000 -0.165
143 429.00 1200.00 223 542 1.100 10000.000 0.000 -0.165
144 432.00 1200.00 222 499 1.100 10000.000 0.000 -0.165
