# BinNR microsec tot-time (s)  O-Beam AUX Ampl(V) f(Hz) phase(deg) chi(pos)
0 0.00 1500.04 83 115 2.050 10000.000 0.000 -1.000
1 3.00 1500.04 143 235 2.050 10000.000 0.000 -1.000
2 6.00 1500.04 170 209 2.050 10000.000 0.000 -1.000
3 9.00 1500.04 147 234 2.050 10000.000 0.000 -1.000
4 12.00 1500.04 148 227 2.050 10000.000 0.000 -1.000
5 15.00 1500.04 163 200 2.050 10000.000 0.000 -1.000
6 18.00 1500.04 151 224 2.050 10000.000 0.000 -1.000
7 21.00 1500.04 153 198 2.050 10000.000 0.000 -1.000
8 24.00 1500.04 173 203 2.050 10000.000 0.000 -1.000
9 27.00 1500.04 169 231 2.050 10000.000 0.000 -1.000
10 30.00 1500.04 147 227 2.050 10000.000 0.000 -1.000
11 33.00 1500.04 151 183 2.050 10000.000 0.000 -1.000
12 36.00 1500.04 163 198 2.050 10000.000 0.000 -1.000
13 39.00 1500.04 152 215 2.050 10000.000 0.000 -1.000
14 42.00 1500.04 139 218 2.050 10000.000 0.000 -1.000
15 45.00 1500.04 165 214 2.050 10000.000 0.000 -1.000
16 48.00 1500.04 155 238 2.050 10000.000 0.000 -1.000
17 51.00 1500.04 158 212 2.050 10000.000 0.000 -1.000
18 54.00 1500.04 151 210 2.050 10000.000 0.000 -1.000
19 57.00 1500.04 169 243 2.050 10000.000 0.000 -1.000
20 60.00 1500.04 157 225 2.050 10000.000 0.000 -1.000
21 63.00 1500.04 128 226 2.050 10000.000 0.000 -1.000
22 66.00 1500.04 170 206 2.050 10000.000 0.000 -1.000
23 69.00 1500.04 168 211 2.050 10000.000 0.000 -1.000
24 72.00 1500.04 150 222 2.050 10000.000 0.000 -1.000
25 75.00 1500.04 124 222 2.050 10000.000 0.000 -1.000
26 78.00 1500.04 153 234 2.050 10000.000 0.000 -1.000
27 81.00 1500.04 149 221 2.050 10000.000 0.000 -1.000
28 84.00 1500.04 158 243 2.050 10000.000 0.000 -1.000
29 87.00 1500.04 157 208 2.050 10000.000 0.000 -1.000
30 90.00 1500.04 165 227 2.050 10000.000 0.000 -1.000
31 93.00 1500.04 155 234 2.050 10000.000 0.000 -1.000
32 96.00 1500.04 159 210 2.050 10000.000 0.000 -1.000
33 99.00 1500.04 155 198 2.050 10000.000 0.000 -1.000
34 102.00 1500.04 160 223 2.050 10000.000 0.000 -1.000
35 105.00 1500.04 157 211 2.050 10000.000 0.000 -1.000
36 108.00 1500.04 177 215 2.050 10000.000 0.000 -1.000
37 111.00 1500.04 168 203 2.050 10000.000 0.000 -1.000
38 114.00 1500.04 157 228 2.050 10000.000 0.000 -1.000
39 117.00 1500.04 133 233 2.050 10000.000 0.000 -1.000
40 120.00 1500.04 160 210 2.050 10000.000 0.000 -1.000
41 123.00 1500.04 153 223 2.050 10000.000 0.000 -1.000
42 126.00 1500.04 182 221 2.050 10000.000 0.000 -1.000
43 129.00 1500.04 175 232 2.050 10000.000 0.000 -1.000
44 132.00 1500.04 174 206 2.050 10000.000 0.000 -1.000
45 135.00 1500.04 161 237 2.050 10000.000 0.000 -1.000
46 138.00 1500.04 173 210 2.050 10000.000 0.000 -1.000
47 141.00 1500.04 162 212 2.050 10000.000 0.000 -1.000
48 144.00 1500.04 169 214 2.050 10000.000 0.000 -1.000
49 147.00 1500.04 157 194 2.050 10000.000 0.000 -1.000
50 150.00 1500.04 143 205 2.050 10000.000 0.000 -1.000
51 153.00 1500.04 171 189 2.050 10000.000 0.000 -1.000
52 156.00 1500.04 175 221 2.050 10000.000 0.000 -1.000
53 159.00 1500.04 177 186 2.050 10000.000 0.000 -1.000
54 162.00 1500.04 162 222 2.050 10000.000 0.000 -1.000
55 165.00 1500.04 168 216 2.050 10000.000 0.000 -1.000
56 168.00 1500.04 168 226 2.050 10000.000 0.000 -1.000
57 171.00 1500.04 163 195 2.050 10000.000 0.000 -1.000
58 174.00 1500.04 165 234 2.050 10000.000 0.000 -1.000
59 177.00 1500.04 178 209 2.050 10000.000 0.000 -1.000
60 180.00 1500.04 158 210 2.050 10000.000 0.000 -1.000
61 183.00 1500.04 141 225 2.050 10000.000 0.000 -1.000
62 186.00 1500.04 173 233 2.050 10000.000 0.000 -1.000
63 189.00 1500.04 148 201 2.050 10000.000 0.000 -1.000
64 192.00 1500.04 164 225 2.050 10000.000 0.000 -1.000
65 195.00 1500.04 129 209 2.050 10000.000 0.000 -1.000
66 198.00 1500.04 161 221 2.050 10000.000 0.000 -1.000
67 201.00 1500.04 155 225 2.050 10000.000 0.000 -1.000
68 204.00 1500.04 178 238 2.050 10000.000 0.000 -1.000
69 207.00 1500.04 173 236 2.050 10000.000 0.000 -1.000
70 210.00 1500.04 166 200 2.050 10000.000 0.000 -1.000
71 213.00 1500.04 189 254 2.050 10000.000 0.000 -1.000
72 216.00 1500.04 170 216 2.050 10000.000 0.000 -1.000
73 219.00 1500.04 174 193 2.050 10000.000 0.000 -1.000
74 222.00 1500.04 177 232 2.050 10000.000 0.000 -1.000
75 225.00 1500.04 163 195 2.050 10000.000 0.000 -1.000
76 228.00 1500.04 159 238 2.050 10000.000 0.000 -1.000
77 231.00 1500.04 156 226 2.050 10000.000 0.000 -1.000
78 234.00 1500.04 177 217 2.050 10000.000 0.000 -1.000
79 237.00 1500.04 172 202 2.050 10000.000 0.000 -1.000
80 240.00 1500.04 170 225 2.050 10000.000 0.000 -1.000
81 243.00 1500.04 161 198 2.050 10000.000 0.000 -1.000
82 246.00 1500.04 158 211 2.050 10000.000 0.000 -1.000
83 249.00 1500.04 180 215 2.050 10000.000 0.000 -1.000
84 252.00 1500.04 162 206 2.050 10000.000 0.000 -1.000
85 255.00 1500.04 145 212 2.050 10000.000 0.000 -1.000
86 258.00 1500.04 169 220 2.050 10000.000 0.000 -1.000
87 261.00 1500.04 158 210 2.050 10000.000 0.000 -1.000
88 264.00 1500.04 175 231 2.050 10000.000 0.000 -1.000
89 267.00 1500.04 154 245 2.050 10000.000 0.000 -1.000
90 270.00 1500.04 169 222 2.050 10000.000 0.000 -1.000
91 273.00 1500.04 148 206 2.050 10000.000 0.000 -1.000
92 276.00 1500.04 187 198 2.050 10000.000 0.000 -1.000
93 279.00 1500.04 167 203 2.050 10000.000 0.000 -1.000
94 282.00 1500.04 163 204 2.050 10000.000 0.000 -1.000
95 285.00 1500.04 153 192 2.050 10000.000 0.000 -1.000
96 288.00 1500.04 177 189 2.050 10000.000 0.000 -1.000
97 291.00 1500.04 139 223 2.050 10000.000 0.000 -1.000
98 294.00 1500.04 166 223 2.050 10000.000 0.000 -1.000
99 297.00 1500.04 170 229 2.050 10000.000 0.000 -1.000
100 300.00 1500.04 170 213 2.050 10000.000 0.000 -1.000
101 303.00 1500.04 140 209 2.050 10000.000 0.000 -1.000
102 306.00 1500.04 154 247 2.050 10000.000 0.000 -1.000
103 309.00 1500.04 179 212 2.050 10000.000 0.000 -1.000
104 312.00 1500.04 174 203 2.050 10000.000 0.000 -1.000
105 315.00 1500.04 157 215 2.050 10000.000 0.000 -1.000
106 318.00 1500.04 157 234 2.050 10000.000 0.000 -1.000
107 321.00 1500.04 152 226 2.050 10000.000 0.000 -1.000
108 324.00 1500.04 152 222 2.050 10000.000 0.000 -1.000
109 327.00 1500.04 157 201 2.050 10000.000 0.000 -1.000
110 330.00 1500.04 151 213 2.050 10000.000 0.000 -1.000
111 333.00 1500.04 157 248 2.050 10000.000 0.000 -1.000
112 336.00 1500.04 174 214 2.050 10000.000 0.000 -1.000
113 339.00 1500.04 153 207 2.050 10000.000 0.000 -1.000
114 342.00 1500.04 179 232 2.050 10000.000 0.000 -1.000
115 345.00 1500.04 166 256 2.050 10000.000 0.000 -1.000
116 348.00 1500.04 158 199 2.050 10000.000 0.000 -1.000
117 351.00 1500.04 142 234 2.050 10000.000 0.000 -1.000
118 354.00 1500.04 148 194 2.050 10000.000 0.000 -1.000
119 357.00 1500.04 168 233 2.050 10000.000 0.000 -1.000
120 360.00 1500.04 145 207 2.050 10000.000 0.000 -1.000
121 363.00 1500.04 145 238 2.050 10000.000 0.000 -1.000
122 366.00 1500.04 159 231 2.050 10000.000 0.000 -1.000
123 369.00 1500.04 179 203 2.050 10000.000 0.000 -1.000
124 372.00 1500.04 193 224 2.050 10000.000 0.000 -1.000
125 375.00 1500.04 163 235 2.050 10000.000 0.000 -1.000
126 378.00 1500.04 166 213 2.050 10000.000 0.000 -1.000
127 381.00 1500.04 157 216 2.050 10000.000 0.000 -1.000
128 384.00 1500.04 192 245 2.050 10000.000 0.000 -1.000
129 387.00 1500.04 158 232 2.050 10000.000 0.000 -1.000
130 390.00 1500.04 179 195 2.050 10000.000 0.000 -1.000
131 393.00 1500.04 170 229 2.050 10000.000 0.000 -1.000
132 396.00 1500.04 157 241 2.050 10000.000 0.000 -1.000
133 399.00 1500.04 158 212 2.050 10000.000 0.000 -1.000
134 402.00 1500.04 172 194 2.050 10000.000 0.000 -1.000
