# BinNR microsec tot-time (s)  O-Beam AUX Ampl(V) f(Hz) phase(deg) chi(pos)
0 0.00 1500.02 216 618 2.050 10000.000 0.000 -0.176
1 3.00 1500.02 382 1221 2.050 10000.000 0.000 -0.176
2 6.00 1500.02 401 1247 2.050 10000.000 0.000 -0.176
3 9.00 1500.02 399 1237 2.050 10000.000 0.000 -0.176
4 12.00 1500.02 413 1151 2.050 10000.000 0.000 -0.176
5 15.00 1500.02 407 1253 2.050 10000.000 0.000 -0.176
6 18.00 1500.02 407 1245 2.050 10000.000 0.000 -0.176
7 21.00 1500.02 378 1185 2.050 10000.000 0.000 -0.176
8 24.00 1500.02 372 1214 2.050 10000.000 0.000 -0.176
9 27.00 1500.02 412 1179 2.050 10000.000 0.000 -0.176
10 30.00 1500.02 421 1291 2.050 10000.000 0.000 -0.176
11 33.00 1500.02 393 1283 2.050 10000.000 0.000 -0.176
12 36.00 1500.02 421 1167 2.050 10000.000 0.000 -0.176
13 39.00 1500.02 380 1233 2.050 10000.000 0.000 -0.176
14 42.00 1500.02 421 1275 2.050 10000.000 0.000 -0.176
15 45.00 1500.02 345 1204 2.050 10000.000 0.000 -0.176
16 48.00 1500.02 385 1212 2.050 10000.000 0.000 -0.176
17 51.00 1500.02 389 1178 2.050 10000.000 0.000 -0.176
18 54.00 1500.02 367 1196 2.050 10000.000 0.000 -0.176
19 57.00 1500.02 428 1187 2.050 10000.000 0.000 -0.176
20 60.00 1500.02 413 1229 2.050 10000.000 0.000 -0.176
21 63.00 1500.02 379 1147 2.050 10000.000 0.000 -0.176
22 66.00 1500.02 383 1278 2.050 10000.000 0.000 -0.176
23 69.00 1500.02 371 1201 2.050 10000.000 0.000 -0.176
24 72.00 1500.02 379 1272 2.050 10000.000 0.000 -0.176
25 75.00 1500.02 395 1241 2.050 10000.000 0.000 -0.176
26 78.00 1500.02 373 1211 2.050 10000.000 0.000 -0.176
27 81.00 1500.02 395 1181 2.050 10000.000 0.000 -0.176
28 84.00 1500.02 385 1221 2.050 10000.000 0.000 -0.176
29 87.00 1500.02 395 1213 2.050 10000.000 0.000 -0.176
30 90.00 1500.02 407 1217 2.050 10000.000 0.000 -0.176
31 93.00 1500.02 423 1232 2.050 10000.000 0.000 -0.176
32 96.00 1500.02 435 1225 2.050 10000.000 0.000 -0.176
33 99.00 1500.02 372 1168 2.050 10000.000 0.000 -0.176
34 102.00 1500.02 408 1226 2.050 10000.000 0.000 -0.176
35 105.00 1500.02 378 1193 2.050 10000.000 0.000 -0.176
36 108.00 1500.02 398 1202 2.050 10000.000 0.000 -0.176
37 111.00 1500.02 386 1256 2.050 10000.000 0.000 -0.176
38 114.00 1500.02 382 1167 2.050 10000.000 0.000 -0.176
39 117.00 1500.02 382 1240 2.050 10000.000 0.000 -0.176
40 120.00 1500.02 403 1328 2.050 10000.000 0.000 -0.176
41 123.00 1500.02 409 1255 2.050 10000.000 0.000 -0.176
42 126.00 1500.02 371 1218 2.050 10000.000 0.000 -0.176
43 129.00 1500.02 392 1243 2.050 10000.000 0.000 -0.176
44 132.00 1500.02 394 1218 2.050 10000.000 0.000 -0.176
45 135.00 1500.02 432 1218 2.050 10000.000 0.000 -0.176
46 138.00 1500.02 389 1223 2.050 10000.000 0.000 -0.176
47 141.00 1500.02 396 1263 2.050 10000.000 0.000 -0.176
48 144.00 1500.02 380 1233 2.050 10000.000 0.000 -0.176
49 147.00 1500.02 397 1216 2.050 10000.000 0.000 -0.176
50 150.00 1500.02 401 1224 2.050 10000.000 0.000 -0.176
51 153.00 1500.02 347 1213 2.050 10000.000 0.000 -0.176
52 156.00 1500.02 397 1255 2.050 10000.000 0.000 -0.176
53 159.00 1500.02 434 1210 2.050 10000.000 0.000 -0.176
54 162.00 1500.02 398 1212 2.050 10000.000 0.000 -0.176
55 165.00 1500.02 425 1201 2.050 10000.000 0.000 -0.176
56 168.00 1500.02 389 1240 2.050 10000.000 0.000 -0.176
57 171.00 1500.02 422 1231 2.050 10000.000 0.000 -0.176
58 174.00 1500.02 393 1287 2.050 10000.000 0.000 -0.176
59 177.00 1500.02 380 1248 2.050 10000.000 0.000 -0.176
60 180.00 1500.02 364 1196 2.050 10000.000 0.000 -0.176
61 183.00 1500.02 374 1246 2.050 10000.000 0.000 -0.176
62 186.00 1500.02 401 1237 2.050 10000.000 0.000 -0.176
63 189.00 1500.02 387 1237 2.050 10000.000 0.000 -0.176
64 192.00 1500.02 364 1261 2.050 10000.000 0.000 -0.176
65 195.00 1500.02 389 1218 2.050 10000.000 0.000 -0.176
66 198.00 1500.02 389 1242 2.050 10000.000 0.000 -0.176
67 201.00 1500.02 426 1247 2.050 10000.000 0.000 -0.176
68 204.00 1500.02 410 1204 2.050 10000.000 0.000 -0.176
69 207.00 1500.02 377 1177 2.050 10000.000 0.000 -0.176
70 210.00 1500.02 404 1217 2.050 10000.000 0.000 -0.176
71 213.00 1500.02 390 1260 2.050 10000.000 0.000 -0.176
72 216.00 1500.02 431 1244 2.050 10000.000 0.000 -0.176
73 219.00 1500.02 379 1200 2.050 10000.000 0.000 -0.176
74 222.00 1500.02 416 1270 2.050 10000.000 0.000 -0.176
75 225.00 1500.02 373 1245 2.050 10000.000 0.000 -0.176
76 228.00 1500.02 361 1289 2.050 10000.000 0.000 -0.176
77 231.00 1500.02 391 1234 2.050 10000.000 0.000 -0.176
78 234.00 1500.02 383 1236 2.050 10000.000 0.000 -0.176
79 237.00 1500.02 370 1248 2.050 10000.000 0.000 -0.176
80 240.00 1500.02 412 1299 2.050 10000.000 0.000 -0.176
81 243.00 1500.02 431 1245 2.050 10000.000 0.000 -0.176
82 246.00 1500.02 417 1235 2.050 10000.000 0.000 -0.176
83 249.00 1500.02 386 1263 2.050 10000.000 0.000 -0.176
84 252.00 1500.02 425 1231 2.050 10000.000 0.000 -0.176
85 255.00 1500.02 385 1203 2.050 10000.000 0.000 -0.176
86 258.00 1500.02 405 1256 2.050 10000.000 0.000 -0.176
87 261.00 1500.02 413 1166 2.050 10000.000 0.000 -0.176
88 264.00 1500.02 406 1311 2.050 10000.000 0.000 -0.176
89 267.00 1500.02 394 1205 2.050 10000.000 0.000 -0.176
90 270.00 1500.02 405 1268 2.050 10000.000 0.000 -0.176
91 273.00 1500.02 389 1204 2.050 10000.000 0.000 -0.176
92 276.00 1500.02 427 1216 2.050 10000.000 0.000 -0.176
93 279.00 1500.02 379 1205 2.050 10000.000 0.000 -0.176
94 282.00 1500.02 404 1243 2.050 10000.000 0.000 -0.176
95 285.00 1500.02 409 1226 2.050 10000.000 0.000 -0.176
96 288.00 1500.02 406 1285 2.050 10000.000 0.000 -0.176
97 291.00 1500.02 373 1244 2.050 10000.000 0.000 -0.176
98 294.00 1500.02 406 1236 2.050 10000.000 0.000 -0.176
99 297.00 1500.02 390 1228 2.050 10000.000 0.000 -0.176
100 300.00 1500.02 398 1221 2.050 10000.000 0.000 -0.176
101 303.00 1500.02 395 1181 2.050 10000.000 0.000 -0.176
102 306.00 1500.02 400 1190 2.050 10000.000 0.000 -0.176
103 309.00 1500.02 386 1284 2.050 10000.000 0.000 -0.176
104 312.00 1500.02 382 1275 2.050 10000.000 0.000 -0.176
105 315.00 1500.02 382 1192 2.050 10000.000 0.000 -0.176
106 318.00 1500.02 374 1274 2.050 10000.000 0.000 -0.176
107 321.00 1500.02 407 1122 2.050 10000.000 0.000 -0.176
108 324.00 1500.02 433 1194 2.050 10000.000 0.000 -0.176
109 327.00 1500.02 368 1219 2.050 10000.000 0.000 -0.176
110 330.00 1500.02 412 1200 2.050 10000.000 0.000 -0.176
111 333.00 1500.02 392 1180 2.050 10000.000 0.000 -0.176
112 336.00 1500.02 380 1284 2.050 10000.000 0.000 -0.176
113 339.00 1500.02 421 1281 2.050 10000.000 0.000 -0.176
114 342.00 1500.02 394 1251 2.050 10000.000 0.000 -0.176
115 345.00 1500.02 401 1260 2.050 10000.000 0.000 -0.176
116 348.00 1500.02 400 1228 2.050 10000.000 0.000 -0.176
117 351.00 1500.02 352 1262 2.050 10000.000 0.000 -0.176
118 354.00 1500.02 400 1197 2.050 10000.000 0.000 -0.176
119 357.00 1500.02 389 1192 2.050 10000.000 0.000 -0.176
120 360.00 1500.02 450 1281 2.050 10000.000 0.000 -0.176
121 363.00 1500.02 388 1189 2.050 10000.000 0.000 -0.176
122 366.00 1500.02 385 1304 2.050 10000.000 0.000 -0.176
123 369.00 1500.02 381 1224 2.050 10000.000 0.000 -0.176
124 372.00 1500.02 425 1228 2.050 10000.000 0.000 -0.176
125 375.00 1500.02 379 1203 2.050 10000.000 0.000 -0.176
126 378.00 1500.02 372 1185 2.050 10000.000 0.000 -0.176
127 381.00 1500.02 371 1183 2.050 10000.000 0.000 -0.176
128 384.00 1500.02 443 1193 2.050 10000.000 0.000 -0.176
129 387.00 1500.02 433 1220 2.050 10000.000 0.000 -0.176
130 390.00 1500.02 399 1206 2.050 10000.000 0.000 -0.176
131 393.00 1500.02 410 1306 2.050 10000.000 0.000 -0.176
132 396.00 1500.02 404 1222 2.050 10000.000 0.000 -0.176
133 399.00 1500.02 418 1202 2.050 10000.000 0.000 -0.176
134 402.00 1500.02 429 1262 2.050 10000.000 0.000 -0.176
