# BinNR microsec tot-time (s)  O-Beam AUX Ampl(V) f(Hz) phase(deg) chi(pos)
0 0.00 1200.01 117 443 2.000 10000.000 0.000 -0.505
1 3.00 1200.01 250 909 2.000 10000.000 0.000 -0.505
2 6.00 1200.01 282 929 2.000 10000.000 0.000 -0.505
3 9.00 1200.01 282 927 2.000 10000.000 0.000 -0.505
4 12.00 1200.01 282 949 2.000 10000.000 0.000 -0.505
5 15.00 1200.01 291 964 2.000 10000.000 0.000 -0.505
6 18.00 1200.01 313 961 2.000 10000.000 0.000 -0.505
7 21.00 1200.01 264 927 2.000 10000.000 0.000 -0.505
8 24.00 1200.01 303 985 2.000 10000.000 0.000 -0.505
9 27.00 1200.01 322 944 2.000 10000.000 0.000 -0.505
10 30.00 1200.01 318 904 2.000 10000.000 0.000 -0.505
11 33.00 1200.01 271 930 2.000 10000.000 0.000 -0.505
12 36.00 1200.01 245 870 2.000 10000.000 0.000 -0.505
13 39.00 1200.01 263 774 2.000 10000.000 0.000 -0.505
14 42.00 1200.01 238 759 2.000 10000.000 0.000 -0.505
15 45.00 1200.01 210 663 2.000 10000.000 0.000 -0.505
16 48.00 1200.01 183 649 2.000 10000.000 0.000 -0.505
17 51.00 1200.01 185 558 2.000 10000.000 0.000 -0.505
18 54.00 1200.01 186 473 2.000 10000.000 0.000 -0.505
19 57.00 1200.01 157 438 2.000 10000.000 0.000 -0.505
20 60.00 1200.01 177 396 2.000 10000.000 0.000 -0.505
21 63.00 1200.01 142 366 2.000 10000.000 0.000 -0.505
22 66.00 1200.01 135 351 2.000 10000.000 0.000 -0.505
23 69.00 1200.01 132 340 2.000 10000.000 0.000 -0.505
24 72.00 1200.01 148 385 2.000 10000.000 0.000 -0.505
25 75.00 1200.01 132 400 2.000 10000.000 0.000 -0.505
26 78.00 1200.01 132 448 2.000 10000.000 0.000 -0.505
27 81.00 1200.01 140 486 2.000 10000.000 0.000 -0.505
28 84.00 1200.01 155 615 2.000 10000.000 0.000 -0.505
29 87.00 1200.01 165 605 2.000 10000.000 0.000 -0.505
30 90.00 1200.01 226 645 2.000 10000.000 0.000 -0.505
31 93.00 1200.01 198 801 2.000 10000.000 0.000 -0.505
32 96.00 1200.01 262 830 2.000 10000.000 0.000 -0.505
33 99.00 1200.01 259 883 2.000 10000.000 0.000 -0.505
34 102.00 1200.01 266 880 2.000 10000.000 0.000 -0.505
35 105.00 1200.01 289 931 2.000 10000.000 0.000 -0.505
36 108.00 1200.01 251 955 2.000 10000.000 0.000 -0.505
37 111.00 1200.01 291 930 2.000 10000.000 0.000 -0.505
38 114.00 1200.01 267 971 2.000 10000.000 0.000 -0.505
39 117.00 1200.01 298 933 2.000 10000.000 0.000 -0.505
40 120.00 1200.01 298 1018 2.000 10000.000 0.000 -0.505
41 123.00 1200.01 303 911 2.000 10000.000 0.000 -0.505
42 126.00 1200.01 306 948 2.000 10000.000 0.000 -0.505
43 129.00 1200.01 301 953 2.000 10000.000 0.000 -0.505
44 132.00 1200.01 295 915 2.000 10000.000 0.000 -0.505
45 135.00 1200.01 259 900 2.000 10000.000 0.000 -0.505
46 138.00 1200.01 245 832 2.000 10000.000 0.000 -0.505
47 141.00 1200.01 249 766 2.000 10000.000 0.000 -0.505
48 144.00 1200.01 252 674 2.000 10000.000 0.000 -0.505
49 147.00 1200.01 250 611 2.000 10000.000 0.000 -0.505
50 150.00 1200.01 195 590 2.000 10000.000 0.000 -0.505
51 153.00 1200.01 190 498 2.000 10000.000 0.000 -0.505
52 156.00 1200.01 183 416 2.000 10000.000 0.000 -0.505
53 159.00 1200.01 169 406 2.000 10000.000 0.000 -0.505
54 162.00 1200.01 133 359 2.000 10000.000 0.000 -0.505
55 165.00 1200.01 140 384 2.000 10000.000 0.000 -0.505
56 168.00 1200.01 129 385 2.000 10000.000 0.000 -0.505
57 171.00 1200.01 114 377 2.000 10000.000 0.000 -0.505
58 174.00 1200.01 124 412 2.000 10000.000 0.000 -0.505
59 177.00 1200.01 116 480 2.000 10000.000 0.000 -0.505
60 180.00 1200.01 141 451 2.000 10000.000 0.000 -0.505
61 183.00 1200.01 177 513 2.000 10000.000 0.000 -0.505
62 186.00 1200.01 176 639 2.000 10000.000 0.000 -0.505
63 189.00 1200.01 178 643 2.000 10000.000 0.000 -0.505
64 192.00 1200.01 209 735 2.000 10000.000 0.000 -0.505
65 195.00 1200.01 210 798 2.000 10000.000 0.000 -0.505
66 198.00 1200.01 208 851 2.000 10000.000 0.000 -0.505
67 201.00 1200.01 246 841 2.000 10000.000 0.000 -0.505
68 204.00 1200.01 277 904 2.000 10000.000 0.000 -0.505
69 207.00 1200.01 249 932 2.000 10000.000 0.000 -0.505
70 210.00 1200.01 293 986 2.000 10000.000 0.000 -0.505
71 213.00 1200.01 307 953 2.000 10000.000 0.000 -0.505
72 216.00 1200.01 318 968 2.000 10000.000 0.000 -0.505
73 219.00 1200.01 294 921 2.000 10000.000 0.000 -0.505
74 222.00 1200.01 345 964 2.000 10000.000 0.000 -0.505
75 225.00 1200.01 317 978 2.000 10000.000 0.000 -0.505
76 228.00 1200.01 275 1003 2.000 10000.000 0.000 -0.505
77 231.00 1200.01 315 951 2.000 10000.000 0.000 -0.505
78 234.00 1200.01 269 903 2.000 10000.000 0.000 -0.505
79 237.00 1200.01 257 874 2.000 10000.000 0.000 -0.505
80 240.00 1200.01 280 736 2.000 10000.000 0.000 -0.505
81 243.00 1200.01 232 787 2.000 10000.000 0.000 -0.505
82 246.00 1200.01 212 685 2.000 10000.000 0.000 -0.505
83 249.00 1200.01 181 629 2.000 10000.000 0.000 -0.505
84 252.00 1200.01 187 545 2.000 10000.000 0.000 -0.505
85 255.00 1200.01 181 498 2.000 10000.000 0.000 -0.505
86 258.00 1200.01 147 405 2.000 10000.000 0.000 -0.505
87 261.00 1200.01 141 403 2.000 10000.000 0.000 -0.505
88 264.00 1200.01 153 392 2.000 10000.000 0.000 -0.505
89 267.00 1200.01 124 391 2.000 10000.000 0.000 -0.505
90 270.00 1200.01 125 374 2.000 10000.000 0.000 -0.505
91 273.00 1200.01 129 410 2.000 10000.000 0.000 -0.505
92 276.00 1200.01 139 404 2.000 10000.000 0.000 -0.505
93 279.00 1200.01 122 430 2.000 10000.000 0.000 -0.505
94 282.00 1200.01 145 550 2.000 10000.000 0.000 -0.505
95 285.00 1200.01 184 556 2.000 10000.000 0.000 -0.505
96 288.00 1200.01 173 668 2.000 10000.000 0.000 -0.505
97 291.00 1200.01 185 676 2.000 10000.000 0.000 -0.505
98 294.00 1200.01 196 770 2.000 10000.000 0.000 -0.505
99 297.00 1200.01 224 833 2.000 10000.000 0.000 -0.505
100 300.00 1200.01 238 785 2.000 10000.000 0.000 -0.505
