# BinNR microsec tot-time (s)  O-Beam AUX Ampl(V) f(Hz) phase(deg) chi(pos)
0 0.00 1500.02 58 72 0.510 10000.000 0.000 -1.505
1 3.00 1500.02 112 133 0.510 10000.000 0.000 -1.505
2 6.00 1500.02 121 132 0.510 10000.000 0.000 -1.505
3 9.00 1500.02 107 146 0.510 10000.000 0.000 -1.505
4 12.00 1500.02 107 146 0.510 10000.000 0.000 -1.505
5 15.00 1500.02 119 165 0.510 10000.000 0.000 -1.505
6 18.00 1500.02 96 162 0.510 10000.000 0.000 -1.505
7 21.00 1500.02 99 190 0.510 10000.000 0.000 -1.505
8 24.00 1500.02 98 174 0.510 10000.000 0.000 -1.505
9 27.00 1500.02 102 181 0.510 10000.000 0.000 -1.505
10 30.00 1500.02 96 173 0.510 10000.000 0.000 -1.505
11 33.00 1500.02 100 175 0.510 10000.000 0.000 -1.505
12 36.00 1500.02 132 177 0.510 10000.000 0.000 -1.505
13 39.00 1500.02 109 179 0.510 10000.000 0.000 -1.505
14 42.00 1500.02 109 168 0.510 10000.000 0.000 -1.505
15 45.00 1500.02 116 182 0.510 10000.000 0.000 -1.505
16 48.00 1500.02 86 174 0.510 10000.000 0.000 -1.505
17 51.00 1500.02 95 189 0.510 10000.000 0.000 -1.505
18 54.00 1500.02 98 175 0.510 10000.000 0.000 -1.505
19 57.00 1500.02 100 175 0.510 10000.000 0.000 -1.505
20 60.00 1500.02 103 164 0.510 10000.000 0.000 -1.505
21 63.00 1500.02 102 159 0.510 10000.000 0.000 -1.505
22 66.00 1500.02 94 175 0.510 10000.000 0.000 -1.505
23 69.00 1500.02 96 136 0.510 10000.000 0.000 -1.505
24 72.00 1500.02 109 161 0.510 10000.000 0.000 -1.505
25 75.00 1500.02 108 149 0.510 10000.000 0.000 -1.505
26 78.00 1500.02 100 158 0.510 10000.000 0.000 -1.505
27 81.00 1500.02 110 142 0.510 10000.000 0.000 -1.505
28 84.00 1500.02 121 152 0.510 10000.000 0.000 -1.505
29 87.00 1500.02 107 157 0.510 10000.000 0.000 -1.505
30 90.00 1500.02 100 145 0.510 10000.000 0.000 -1.505
31 93.00 1500.02 122 139 0.510 10000.000 0.000 -1.505
32 96.00 1500.02 110 132 0.510 10000.000 0.000 -1.505
33 99.00 1500.02 131 121 0.510 10000.000 0.000 -1.505
34 102.00 1500.02 106 142 0.510 10000.000 0.000 -1.505
35 105.00 1500.02 121 145 0.510 10000.000 0.000 -1.505
36 108.00 1500.02 105 145 0.510 10000.000 0.000 -1.505
37 111.00 1500.02 100 142 0.510 10000.000 0.000 -1.505
38 114.00 1500.02 122 146 0.510 10000.000 0.000 -1.505
39 117.00 1500.02 104 148 0.510 10000.000 0.000 -1.505
40 120.00 1500.02 104 187 0.510 10000.000 0.000 -1.505
41 123.00 1500.02 111 170 0.510 10000.000 0.000 -1.505
42 126.00 1500.02 106 158 0.510 10000.000 0.000 -1.505
43 129.00 1500.02 113 146 0.510 10000.000 0.000 -1.505
44 132.00 1500.02 87 171 0.510 10000.000 0.000 -1.505
45 135.00 1500.02 98 166 0.510 10000.000 0.000 -1.505
46 138.00 1500.02 106 173 0.510 10000.000 0.000 -1.505
47 141.00 1500.02 118 168 0.510 10000.000 0.000 -1.505
48 144.00 1500.02 90 171 0.510 10000.000 0.000 -1.505
49 147.00 1500.02 107 170 0.510 10000.000 0.000 -1.505
50 150.00 1500.02 109 210 0.510 10000.000 0.000 -1.505
51 153.00 1500.02 94 194 0.510 10000.000 0.000 -1.505
52 156.00 1500.02 111 161 0.510 10000.000 0.000 -1.505
53 159.00 1500.02 106 196 0.510 10000.000 0.000 -1.505
54 162.00 1500.02 99 176 0.510 10000.000 0.000 -1.505
55 165.00 1500.02 83 187 0.510 10000.000 0.000 -1.505
56 168.00 1500.02 108 146 0.510 10000.000 0.000 -1.505
57 171.00 1500.02 84 150 0.510 10000.000 0.000 -1.505
58 174.00 1500.02 109 140 0.510 10000.000 0.000 -1.505
59 177.00 1500.02 87 126 0.510 10000.000 0.000 -1.505
60 180.00 1500.02 111 155 0.510 10000.000 0.000 -1.505
61 183.00 1500.02 100 125 0.510 10000.000 0.000 -1.505
62 186.00 1500.02 100 121 0.510 10000.000 0.000 -1.505
63 189.00 1500.02 120 131 0.510 10000.000 0.000 -1.505
64 192.00 1500.02 113 131 0.510 10000.000 0.000 -1.505
65 195.00 1500.02 123 122 0.510 10000.000 0.000 -1.505
66 198.00 1500.02 111 137 0.510 10000.000 0.000 -1.505
67 201.00 1500.02 119 121 0.510 10000.000 0.000 -1.505
68 204.00 1500.02 95 138 0.510 10000.000 0.000 -1.505
69 207.00 1500.02 114 132 0.510 10000.000 0.000 -1.505
70 210.00 1500.02 104 125 0.510 10000.000 0.000 -1.505
71 213.00 1500.02 101 115 0.510 10000.000 0.000 -1.505
72 216.00 1500.02 102 134 0.510 10000.000 0.000 -1.505
73 219.00 1500.02 88 170 0.510 10000.000 0.000 -1.505
74 222.00 1500.02 95 150 0.510 10000.000 0.000 -1.505
75 225.00 1500.02 80 163 0.510 10000.000 0.000 -1.505
76 228.00 1500.02 104 148 0.510 10000.000 0.000 -1.505
77 231.00 1500.02 134 192 0.510 10000.000 0.000 -1.505
78 234.00 1500.02 100 182 0.510 10000.000 0.000 -1.505
79 237.00 1500.02 91 182 0.510 10000.000 0.000 -1.505
80 240.00 1500.02 85 204 0.510 10000.000 0.000 -1.505
81 243.00 1500.02 89 174 0.510 10000.000 0.000 -1.505
82 246.00 1500.02 96 179 0.510 10000.000 0.000 -1.505
83 249.00 1500.02 95 181 0.510 10000.000 0.000 -1.505
84 252.00 1500.02 97 186 0.510 10000.000 0.000 -1.505
85 255.00 1500.02 95 176 0.510 10000.000 0.000 -1.505
86 258.00 1500.02 118 170 0.510 10000.000 0.000 -1.505
87 261.00 1500.02 97 195 0.510 10000.000 0.000 -1.505
88 264.00 1500.02 92 171 0.510 10000.000 0.000 -1.505
89 267.00 1500.02 89 152 0.510 10000.000 0.000 -1.505
90 270.00 1500.02 113 148 0.510 10000.000 0.000 -1.505
91 273.00 1500.02 107 138 0.510 10000.000 0.000 -1.505
92 276.00 1500.02 100 149 0.510 10000.000 0.000 -1.505
93 279.00 1500.02 106 139 0.510 10000.000 0.000 -1.505
94 282.00 1500.02 92 129 0.510 10000.000 0.000 -1.505
95 285.00 1500.02 92 130 0.510 10000.000 0.000 -1.505
96 288.00 1500.02 88 160 0.510 10000.000 0.000 -1.505
97 291.00 1500.02 117 147 0.510 10000.000 0.000 -1.505
98 294.00 1500.02 108 122 0.510 10000.000 0.000 -1.505
99 297.00 1500.02 104 141 0.510 10000.000 0.000 -1.505
100 300.00 1500.02 102 134 0.510 10000.000 0.000 -1.505
101 303.00 1500.02 87 128 0.510 10000.000 0.000 -1.505
102 306.00 1500.02 104 124 0.510 10000.000 0.000 -1.505
103 309.00 1500.02 117 124 0.510 10000.000 0.000 -1.505
104 312.00 1500.02 115 140 0.510 10000.000 0.000 -1.505
105 315.00 1500.02 99 165 0.510 10000.000 0.000 -1.505
106 318.00 1500.02 119 136 0.510 10000.000 0.000 -1.505
107 321.00 1500.02 102 144 0.510 10000.000 0.000 -1.505
108 324.00 1500.02 110 144 0.510 10000.000 0.000 -1.505
109 327.00 1500.02 115 163 0.510 10000.000 0.000 -1.505
110 330.00 1500.02 106 154 0.510 10000.000 0.000 -1.505
111 333.00 1500.02 108 173 0.510 10000.000 0.000 -1.505
112 336.00 1500.02 99 170 0.510 10000.000 0.000 -1.505
113 339.00 1500.02 86 179 0.510 10000.000 0.000 -1.505
114 342.00 1500.02 95 152 0.510 10000.000 0.000 -1.505
115 345.00 1500.02 87 182 0.510 10000.000 0.000 -1.505
116 348.00 1500.02 101 186 0.510 10000.000 0.000 -1.505
117 351.00 1500.02 101 163 0.510 10000.000 0.000 -1.505
118 354.00 1500.02 107 180 0.510 10000.000 0.000 -1.505
119 357.00 1500.02 83 187 0.510 10000.000 0.000 -1.505
120 360.00 1500.02 83 164 0.510 10000.000 0.000 -1.505
121 363.00 1500.02 89 159 0.510 10000.000 0.000 -1.505
122 366.00 1500.02 111 165 0.510 10000.000 0.000 -1.505
123 369.00 1500.02 111 141 0.510 10000.000 0.000 -1.505
124 372.00 1500.02 95 151 0.510 10000.000 0.000 -1.505
125 375.00 1500.02 99 152 0.510 10000.000 0.000 -1.505
126 378.00 1500.02 102 119 0.510 10000.000 0.000 -1.505
127 381.00 1500.02 95 135 0.510 10000.000 0.000 -1.505
128 384.00 1500.02 119 155 0.510 10000.000 0.000 -1.505
129 387.00 1500.02 84 144 0.510 10000.000 0.000 -1.505
130 390.00 1500.02 91 133 0.510 10000.000 0.000 -1.505
131 393.00 1500.02 102 117 0.510 10000.000 0.000 -1.505
132 396.00 1500.02 113 138 0.510 10000.000 0.000 -1.505
133 399.00 1500.02 98 134 0.510 10000.000 0.000 -1.505
134 402.00 1500.02 107 157 0.510 10000.000 0.000 -1.505
