# BinNR microsec tot-time (s)  O-Beam AUX Ampl(V) f(Hz) phase(deg) chi(pos)
0 0.00 1500.03 176 363 0.510 10000.000 0.000 0.000
1 3.00 1500.03 302 707 0.510 10000.000 0.000 0.000
2 6.00 1500.03 338 672 0.510 10000.000 0.000 0.000
3 9.00 1500.03 333 706 0.510 10000.000 0.000 0.000
4 12.00 1500.03 353 676 0.510 10000.000 0.000 0.000
5 15.00 1500.03 368 617 0.510 10000.000 0.000 0.000
6 18.00 1500.03 287 648 0.510 10000.000 0.000 0.000
7 21.00 1500.03 316 635 0.510 10000.000 0.000 0.000
8 24.00 1500.03 271 607 0.510 10000.000 0.000 0.000
9 27.00 1500.03 307 627 0.510 10000.000 0.000 0.000
10 30.00 1500.03 300 613 0.510 10000.000 0.000 0.000
11 33.00 1500.03 299 579 0.510 10000.000 0.000 0.000
12 36.00 1500.03 316 539 0.510 10000.000 0.000 0.000
13 39.00 1500.03 259 534 0.510 10000.000 0.000 0.000
14 42.00 1500.03 292 580 0.510 10000.000 0.000 0.000
15 45.00 1500.03 286 549 0.510 10000.000 0.000 0.000
16 48.00 1500.03 282 599 0.510 10000.000 0.000 0.000
17 51.00 1500.03 271 574 0.510 10000.000 0.000 0.000
18 54.00 1500.03 296 594 0.510 10000.000 0.000 0.000
19 57.00 1500.03 285 583 0.510 10000.000 0.000 0.000
20 60.00 1500.03 308 615 0.510 10000.000 0.000 0.000
21 63.00 1500.03 322 609 0.510 10000.000 0.000 0.000
22 66.00 1500.03 317 647 0.510 10000.000 0.000 0.000
23 69.00 1500.03 325 613 0.510 10000.000 0.000 0.000
24 72.00 1500.03 337 648 0.510 10000.000 0.000 0.000
25 75.00 1500.03 339 667 0.510 10000.000 0.000 0.000
26 78.00 1500.03 372 679 0.510 10000.000 0.000 0.000
27 81.00 1500.03 328 714 0.510 10000.000 0.000 0.000
28 84.00 1500.03 317 668 0.510 10000.000 0.000 0.000
29 87.00 1500.03 332 758 0.510 10000.000 0.000 0.000
30 90.00 1500.03 363 784 0.510 10000.000 0.000 0.000
31 93.00 1500.03 358 761 0.510 10000.000 0.000 0.000
32 96.00 1500.03 355 744 0.510 10000.000 0.000 0.000
33 99.00 1500.03 334 754 0.510 10000.000 0.000 0.000
34 102.00 1500.03 363 738 0.510 10000.000 0.000 0.000
35 105.00 1500.03 411 668 0.510 10000.000 0.000 0.000
36 108.00 1500.03 340 727 0.510 10000.000 0.000 0.000
37 111.00 1500.03 305 720 0.510 10000.000 0.000 0.000
38 114.00 1500.03 341 713 0.510 10000.000 0.000 0.000
39 117.00 1500.03 279 653 0.510 10000.000 0.000 0.000
40 120.00 1500.03 343 621 0.510 10000.000 0.000 0.000
41 123.00 1500.03 326 572 0.510 10000.000 0.000 0.000
42 126.00 1500.03 327 618 0.510 10000.000 0.000 0.000
43 129.00 1500.03 306 599 0.510 10000.000 0.000 0.000
44 132.00 1500.03 324 552 0.510 10000.000 0.000 0.000
45 135.00 1500.03 281 550 0.510 10000.000 0.000 0.000
46 138.00 1500.03 296 546 0.510 10000.000 0.000 0.000
47 141.00 1500.03 305 522 0.510 10000.000 0.000 0.000
48 144.00 1500.03 289 557 0.510 10000.000 0.000 0.000
49 147.00 1500.03 267 522 0.510 10000.000 0.000 0.000
50 150.00 1500.03 317 545 0.510 10000.000 0.000 0.000
51 153.00 1500.03 290 551 0.510 10000.000 0.000 0.000
52 156.00 1500.03 288 594 0.510 10000.000 0.000 0.000
53 159.00 1500.03 318 566 0.510 10000.000 0.000 0.000
54 162.00 1500.03 343 588 0.510 10000.000 0.000 0.000
55 165.00 1500.03 327 613 0.510 10000.000 0.000 0.000
56 168.00 1500.03 314 626 0.510 10000.000 0.000 0.000
57 171.00 1500.03 333 639 0.510 10000.000 0.000 0.000
58 174.00 1500.03 342 699 0.510 10000.000 0.000 0.000
59 177.00 1500.03 346 664 0.510 10000.000 0.000 0.000
60 180.00 1500.03 328 682 0.510 10000.000 0.000 0.000
61 183.00 1500.03 341 760 0.510 10000.000 0.000 0.000
62 186.00 1500.03 335 687 0.510 10000.000 0.000 0.000
63 189.00 1500.03 333 755 0.510 10000.000 0.000 0.000
64 192.00 1500.03 346 745 0.510 10000.000 0.000 0.000
65 195.00 1500.03 326 752 0.510 10000.000 0.000 0.000
66 198.00 1500.03 368 745 0.510 10000.000 0.000 0.000
67 201.00 1500.03 358 714 0.510 10000.000 0.000 0.000
68 204.00 1500.03 362 752 0.510 10000.000 0.000 0.000
69 207.00 1500.03 371 714 0.510 10000.000 0.000 0.000
70 210.00 1500.03 318 733 0.510 10000.000 0.000 0.000
71 213.00 1500.03 364 668 0.510 10000.000 0.000 0.000
72 216.00 1500.03 312 661 0.510 10000.000 0.000 0.000
73 219.00 1500.03 345 644 0.510 10000.000 0.000 0.000
74 222.00 1500.03 319 632 0.510 10000.000 0.000 0.000
75 225.00 1500.03 320 637 0.510 10000.000 0.000 0.000
76 228.00 1500.03 299 648 0.510 10000.000 0.000 0.000
77 231.00 1500.03 272 579 0.510 10000.000 0.000 0.000
78 234.00 1500.03 302 599 0.510 10000.000 0.000 0.000
79 237.00 1500.03 313 562 0.510 10000.000 0.000 0.000
80 240.00 1500.03 328 541 0.510 10000.000 0.000 0.000
81 243.00 1500.03 294 533 0.510 10000.000 0.000 0.000
82 246.00 1500.03 279 568 0.510 10000.000 0.000 0.000
83 249.00 1500.03 257 591 0.510 10000.000 0.000 0.000
84 252.00 1500.03 283 551 0.510 10000.000 0.000 0.000
85 255.00 1500.03 312 630 0.510 10000.000 0.000 0.000
86 258.00 1500.03 304 589 0.510 10000.000 0.000 0.000
87 261.00 1500.03 297 590 0.510 10000.000 0.000 0.000
88 264.00 1500.03 304 618 0.510 10000.000 0.000 0.000
89 267.00 1500.03 323 605 0.510 10000.000 0.000 0.000
90 270.00 1500.03 338 623 0.510 10000.000 0.000 0.000
91 273.00 1500.03 336 647 0.510 10000.000 0.000 0.000
92 276.00 1500.03 321 648 0.510 10000.000 0.000 0.000
93 279.00 1500.03 359 699 0.510 10000.000 0.000 0.000
94 282.00 1500.03 332 662 0.510 10000.000 0.000 0.000
95 285.00 1500.03 344 687 0.510 10000.000 0.000 0.000
96 288.00 1500.03 348 761 0.510 10000.000 0.000 0.000
97 291.00 1500.03 339 763 0.510 10000.000 0.000 0.000
98 294.00 1500.03 359 768 0.510 10000.000 0.000 0.000
99 297.00 1500.03 305 727 0.510 10000.000 0.000 0.000
100 300.00 1500.03 345 744 0.510 10000.000 0.000 0.000
101 303.00 1500.03 346 735 0.510 10000.000 0.000 0.000
102 306.00 1500.03 332 791 0.510 10000.000 0.000 0.000
103 309.00 1500.03 343 652 0.510 10000.000 0.000 0.000
104 312.00 1500.03 364 776 0.510 10000.000 0.000 0.000
105 315.00 1500.03 329 689 0.510 10000.000 0.000 0.000
106 318.00 1500.03 345 660 0.510 10000.000 0.000 0.000
107 321.00 1500.03 310 645 0.510 10000.000 0.000 0.000
108 324.00 1500.03 340 609 0.510 10000.000 0.000 0.000
109 327.00 1500.03 282 607 0.510 10000.000 0.000 0.000
110 330.00 1500.03 325 570 0.510 10000.000 0.000 0.000
111 333.00 1500.03 298 566 0.510 10000.000 0.000 0.000
112 336.00 1500.03 285 595 0.510 10000.000 0.000 0.000
113 339.00 1500.03 309 532 0.510 10000.000 0.000 0.000
114 342.00 1500.03 316 590 0.510 10000.000 0.000 0.000
115 345.00 1500.03 282 540 0.510 10000.000 0.000 0.000
116 348.00 1500.03 266 595 0.510 10000.000 0.000 0.000
117 351.00 1500.03 297 525 0.510 10000.000 0.000 0.000
118 354.00 1500.03 333 574 0.510 10000.000 0.000 0.000
119 357.00 1500.03 281 571 0.510 10000.000 0.000 0.000
120 360.00 1500.03 311 603 0.510 10000.000 0.000 0.000
121 363.00 1500.03 315 565 0.510 10000.000 0.000 0.000
122 366.00 1500.03 310 597 0.510 10000.000 0.000 0.000
123 369.00 1500.03 344 653 0.510 10000.000 0.000 0.000
124 372.00 1500.03 298 640 0.510 10000.000 0.000 0.000
125 375.00 1500.03 335 652 0.510 10000.000 0.000 0.000
126 378.00 1500.03 335 692 0.510 10000.000 0.000 0.000
127 381.00 1500.03 332 739 0.510 10000.000 0.000 0.000
128 384.00 1500.03 336 759 0.510 10000.000 0.000 0.000
129 387.00 1500.03 328 718 0.510 10000.000 0.000 0.000
130 390.00 1500.03 344 741 0.510 10000.000 0.000 0.000
131 393.00 1500.03 328 722 0.510 10000.000 0.000 0.000
132 396.00 1500.03 348 714 0.510 10000.000 0.000 0.000
133 399.00 1500.03 312 674 0.510 10000.000 0.000 0.000
134 402.00 1500.03 345 758 0.510 10000.000 0.000 0.000
